TRANSMISSION%TAU_TOTAL = (
  0.146105E-006  0.192993E-007  0.124279E-005  0.221596E-005  0.889894E-002  0.681852E-002  0.305736E-001  0.520626       0.254941       0.505996     
  0.155140E-011  0.232253E-019  0.222853E-011  0.939824E-001  0.174039       0.333896E-001  0.372537E-002  0.823964E-005  0.372479E-005  0.849549     
  0.887010       0.109874E-006  0.601351E-008  0.468842E-006  0.175624E-005  0.483419E-002  0.379353E-002  0.251433E-001  0.541098       0.186037     
  0.503497       0.181490E-007  0.192875E-021  0.918730E-012  0.839513E-001  0.134387       0.186612E-001  0.127754E-002  0.127283E-005  0.278490E-005
  0.827305       0.885261       0.152255E-005  0.813459E-007  0.388930E-005  0.907632E-005  0.233825E-001  0.169254E-001  0.139332       0.885590     
  0.260694       0.836141       0.970459E-007  0.183430E-015  0.583724E-004  0.485814       0.154180       0.173586E-001  0.138424E-002  0.106810E-005
  0.216993E-005  0.844105       0.956077       0.119349E-006  0.245819E-008  0.291390E-006  0.214684E-005  0.423447E-002  0.331189E-002  0.320142E-001
  0.617800       0.173539       0.567069       0.853116E-007  0.192875E-021  0.435458E-010  0.116129       0.115822       0.127401E-001  0.630786E-003
  0.183426E-006  0.208994E-005  0.809126       0.895451       0.312840E-005  0.920234E-006  0.292880E-004  0.110806E-003  0.121755       0.868371E-001
  0.357246       0.972452       0.376565       0.952079       0.153484E-002  0.230550E-004  0.573994E-001  0.836745       0.275202       0.607347E-001
  0.128335E-001  0.181666E-004  0.687907E-005  0.901051       0.983278       0.249160E-006  0.152733E-009  0.728053E-007  0.357198E-005  0.192801E-002
  0.164807E-002  0.296644E-001  0.695114       0.183175       0.601779       0.532411E-008  0.192875E-021  0.212673E-009  0.134237       0.777805E-001
  0.387288E-002  0.945931E-004  0.947721E-008  0.687946E-006  0.776550       0.903253     
 )
TRANSMISSION%TAU_LAYERS = (
   1.00000        1.00000        1.00000        1.00000        1.00000        1.00000        1.00000        1.00000        1.00000        1.00000     
   1.00000        1.00000        1.00000        1.00000        1.00000        1.00000        1.00000        1.00000        1.00000        1.00000     
   1.00000        1.00000        1.00000        1.00000        1.00000        1.00000        1.00000        1.00000        1.00000        1.00000     
   1.00000        1.00000        1.00000        1.00000        1.00000        1.00000        1.00000        1.00000        1.00000        1.00000     
   1.00000        1.00000        1.00000        1.00000        1.00000        1.00000        1.00000        1.00000        1.00000        1.00000     
   1.00000        1.00000        1.00000        1.00000        1.00000        1.00000        1.00000        1.00000        1.00000        1.00000     
   1.00000        1.00000        1.00000        1.00000        1.00000        1.00000        1.00000        1.00000        1.00000        1.00000     
   1.00000        1.00000        1.00000        1.00000        1.00000        1.00000        1.00000        1.00000        1.00000        1.00000     
   1.00000        1.00000        1.00000        1.00000        1.00000        1.00000        1.00000        1.00000        1.00000        1.00000     
   1.00000        1.00000        1.00000        1.00000        1.00000        1.00000        1.00000        1.00000        1.00000        1.00000     
   1.00000        1.00000        1.00000        1.00000        1.00000        1.00000        1.00000        1.00000        1.00000        1.00000     
   1.00000        1.00000        1.00000        1.00000        1.00000        1.00000        1.00000        1.00000        1.00000        1.00000     
   1.00000        1.00000        1.00000        1.00000        1.00000        1.00000     
 
  0.969021       0.996935       0.999871       0.999932       0.999996       0.999965       0.999995        1.00000       0.999970        1.00000     
   1.00000        1.00000        1.00000        1.00000       0.999753       0.999997       0.999992       0.999800       0.998113        1.00000     
   1.00000       0.973232       0.997280       0.999899       0.999950       0.999997       0.999973       0.999996        1.00000       0.999971     
   1.00000        1.00000        1.00000        1.00000        1.00000       0.999907       0.999999       0.999995       0.999810       0.998427     
   1.00000        1.00000       0.969065       0.997173       0.999828       0.999894       0.999994       0.999952       0.999990        1.00000     
  0.999977        1.00000        1.00000        1.00000        1.00000        1.00000       0.999664       0.999994       0.999986       0.999826     
  0.997862        1.00000        1.00000       0.976726       0.997638       0.999913       0.999957       0.999997       0.999976       0.999997     
   1.00000       0.999970        1.00000        1.00000        1.00000        1.00000        1.00000       0.999892       0.999999       0.999996     
  0.999825       0.998644        1.00000        1.00000       0.973289       0.997572       0.999840       0.999900       0.999994       0.999959     
  0.999990        1.00000       0.999984        1.00000        1.00000        1.00000        1.00000        1.00000       0.999770       0.999995     
  0.999986       0.999877       0.998034        1.00000        1.00000       0.972865       0.997525       0.999853       0.999909       0.999995     
  0.999956       0.999992        1.00000       0.999972        1.00000        1.00000        1.00000        1.00000        1.00000       0.999785     
  0.999997       0.999989       0.999822       0.998220        1.00000        1.00000     
 
  0.946410       0.995300       0.999623       0.999745       0.999985       0.999877       0.999977        1.00000       0.999930        1.00000     
  0.999999       0.999999        1.00000        1.00000       0.999725       0.999993       0.999966       0.999606       0.996188        1.00000     
   1.00000       0.954804       0.995814       0.999739       0.999833       0.999990       0.999915       0.999986        1.00000       0.999940     
   1.00000       0.999999        1.00000        1.00000        1.00000       0.999887       0.999998       0.999980       0.999654       0.997076     
   1.00000        1.00000       0.949597       0.995630       0.999621       0.999740       0.999984       0.999888       0.999974        1.00000     
  0.999954        1.00000       0.999999        1.00000        1.00000        1.00000       0.999402       0.999988       0.999962       0.999683     
  0.996093        1.00000        1.00000       0.962820       0.996354       0.999829       0.999902       0.999994       0.999948       0.999992     
   1.00000       0.999947        1.00000        1.00000        1.00000        1.00000        1.00000       0.999846       0.999998       0.999989     
  0.999713       0.997742        1.00000        1.00000       0.956809       0.996150       0.999704       0.999805       0.999988       0.999922     
  0.999980        1.00000       0.999971        1.00000        1.00000        1.00000        1.00000        1.00000       0.999609       0.999991     
  0.999972       0.999787       0.996650        1.00000        1.00000       0.955272       0.995948       0.999732       0.999828       0.999990     
  0.999918       0.999985        1.00000       0.999951        1.00000       0.999999        1.00000        1.00000        1.00000       0.999651     
  0.999994       0.999978       0.999699       0.996948        1.00000        1.00000     
 
  0.920476       0.993467       0.999103       0.999332       0.999955       0.999712       0.999930        1.00000       0.999848        1.00000     
  0.999998       0.999998       0.999999        1.00000       0.999725       0.999989       0.999895       0.999359       0.992736       0.999999     
   1.00000       0.934102       0.994355       0.999409       0.999576       0.999972       0.999803       0.999959        1.00000       0.999878     
   1.00000       0.999998       0.999999        1.00000        1.00000       0.999887       0.999995       0.999940       0.999465       0.994787     
   1.00000        1.00000       0.929534       0.994288       0.999278       0.999466       0.999965       0.999780       0.999943        1.00000     
  0.999916        1.00000       0.999998       0.999999        1.00000        1.00000       0.999101       0.999979       0.999917       0.999496     
  0.993731        1.00000        1.00000       0.945238       0.995110       0.999639       0.999754       0.999984       0.999874       0.999980     
   1.00000       0.999909        1.00000       0.999999       0.999999        1.00000        1.00000       0.999838       0.999997       0.999970     
  0.999554       0.996381        1.00000        1.00000       0.935826       0.994812       0.999360       0.999533       0.999969       0.999819     
  0.999949        1.00000       0.999938        1.00000       0.999999       0.999999        1.00000        1.00000       0.999323       0.999982     
  0.999928       0.999605       0.994175        1.00000        1.00000       0.934244       0.994499       0.999403       0.999571       0.999973     
  0.999807       0.999958        1.00000       0.999903        1.00000       0.999999       0.999999        1.00000        1.00000       0.999553     
  0.999989       0.999938       0.999506       0.994676        1.00000        1.00000     
 
  0.893102       0.991361       0.998307       0.998637       0.999891       0.999484       0.999834        1.00000       0.999654        1.00000     
  0.999995       0.999996       0.999999        1.00000       0.999725       0.999983       0.999743       0.999000       0.988325       0.999999     
   1.00000       0.908761       0.992487       0.998823       0.999100       0.999934       0.999623       0.999901        1.00000       0.999746     
   1.00000       0.999997       0.999998       0.999999        1.00000       0.999887       0.999992       0.999850       0.999200       0.991074     
  0.999999        1.00000       0.904697       0.992512       0.998612       0.998903       0.999919       0.999584       0.999871        1.00000     
  0.999817        1.00000       0.999997       0.999998       0.999999        1.00000       0.998907       0.999966       0.999807       0.999213     
  0.989826       0.999999        1.00000       0.921051       0.993352       0.999146       0.999370       0.999957       0.999715       0.999937     
   1.00000       0.999809        1.00000       0.999998       0.999998       0.999999        1.00000       0.999838       0.999994       0.999906     
  0.999326       0.993045       0.999999        1.00000       0.918723       0.993647       0.998926       0.999162       0.999938       0.999695     
  0.999901        1.00000       0.999876        1.00000       0.999998       0.999999        1.00000        1.00000       0.999115       0.999973     
  0.999859       0.999425       0.991588        1.00000        1.00000       0.919382       0.993419       0.999055       0.999288       0.999951     
  0.999698       0.999924        1.00000       0.999838        1.00000       0.999998       0.999998       0.999999        1.00000       0.999530     
  0.999986       0.999885       0.999338       0.992545       0.999999        1.00000     
 
  0.863112       0.988793       0.997293       0.997628       0.999772       0.999217       0.999672        1.00000       0.999245        1.00000     
  0.999990       0.999993       0.999997       0.999999       0.999725       0.999975       0.999462       0.998467       0.983600       0.999999     
   1.00000       0.880955       0.990267       0.997927       0.998302       0.999855       0.999377       0.999785        1.00000       0.999468     
   1.00000       0.999994       0.999996       0.999998        1.00000       0.999887       0.999987       0.999665       0.998792       0.986302     
  0.999999        1.00000       0.882328       0.990725       0.997826       0.998145       0.999840       0.999367       0.999758        1.00000     
  0.999605        1.00000       0.999994       0.999997       0.999999        1.00000       0.998825       0.999953       0.999620       0.998838     
  0.986184       0.999999        1.00000       0.900031       0.991723       0.998558       0.998870       0.999911       0.999546       0.999869     
   1.00000       0.999648        1.00000       0.999996       0.999997       0.999999        1.00000       0.999838       0.999990       0.999799     
  0.999056       0.989653       0.999999        1.00000       0.902266       0.992473       0.998448       0.998733       0.999898       0.999560     
  0.999843        1.00000       0.999788        1.00000       0.999997       0.999998       0.999999        1.00000       0.998912       0.999962     
  0.999772       0.999226       0.988992        1.00000        1.00000       0.899009       0.991879       0.998488       0.998817       0.999912     
  0.999528       0.999863        1.00000       0.999722        1.00000       0.999996       0.999997       0.999999        1.00000       0.999530     
  0.999980       0.999790       0.999079       0.989237       0.999999        1.00000     
 
  0.827661       0.985467       0.996079       0.996302       0.999578       0.998922       0.999443        1.00000       0.998491       0.999999     
  0.999983       0.999989       0.999995       0.999999       0.999712       0.999961       0.999003       0.997709       0.978480       0.999998     
   1.00000       0.847439       0.987284       0.996740       0.997055       0.999693       0.999077       0.999575        1.00000       0.998876     
   1.00000       0.999988       0.999993       0.999997       0.999999       0.999887       0.999979       0.999289       0.998124       0.981151     
  0.999998        1.00000       0.859053       0.988675       0.996989       0.997261       0.999727       0.999148       0.999612        1.00000     
  0.999230        1.00000       0.999990       0.999994       0.999998       0.999999       0.998746       0.999939       0.999353       0.998364     
  0.982654       0.999999        1.00000       0.875672       0.989718       0.997754       0.998135       0.999833       0.999329       0.999757     
   1.00000       0.999375        1.00000       0.999993       0.999996       0.999998        1.00000       0.999838       0.999986       0.999617     
  0.998667       0.985496       0.999999        1.00000       0.882411       0.990922       0.997739       0.998026       0.999823       0.999362     
  0.999738        1.00000       0.999594        1.00000       0.999994       0.999997       0.999999        1.00000       0.998641       0.999946     
  0.999606       0.998901       0.985934       0.999999        1.00000       0.874288       0.989767       0.997617       0.997997       0.999823     
  0.999291       0.999736        1.00000       0.999398        1.00000       0.999992       0.999995       0.999998        1.00000       0.999530     
  0.999971       0.999574       0.998622       0.985065       0.999999        1.00000     
 
  0.784458       0.981107       0.994642       0.994720       0.999298       0.998599       0.999160        1.00000       0.997244       0.999999     
  0.999973       0.999984       0.999992       0.999997       0.999679       0.999939       0.998336       0.996704       0.972553       0.999997     
   1.00000       0.807710       0.983435       0.995344       0.995473       0.999437       0.998754       0.999294        1.00000       0.997861     
  0.999999       0.999979       0.999988       0.999995       0.999998       0.999887       0.999965       0.998684       0.997184       0.975531     
  0.999997        1.00000       0.830879       0.986001       0.995998       0.996164       0.999564       0.998904       0.999421        1.00000     
  0.998586       0.999999       0.999984       0.999992       0.999996       0.999999       0.998613       0.999922       0.998965       0.997728     
  0.978623       0.999998        1.00000       0.842599       0.986745       0.996571       0.996881       0.999670       0.999035       0.999544     
   1.00000       0.998805       0.999999       0.999987       0.999993       0.999997       0.999999       0.999838       0.999977       0.999229     
  0.997983       0.980391       0.999998        1.00000       0.860928       0.989035       0.996975       0.997190       0.999715       0.999157     
  0.999600        1.00000       0.999218        1.00000       0.999991       0.999995       0.999998       0.999999       0.998298       0.999927     
  0.999362       0.998473       0.982895       0.999999        1.00000       0.851135       0.987611       0.996808       0.997155       0.999709     
  0.999087       0.999590        1.00000       0.998929        1.00000       0.999988       0.999993       0.999997       0.999999       0.999508     
  0.999960       0.999297       0.998119       0.981509       0.999998        1.00000     
 
  0.731960       0.975488       0.992941       0.993006       0.998926       0.998244       0.998842        1.00000       0.995357       0.999998     
  0.999958       0.999977       0.999989       0.999995       0.999621       0.999907       0.997453       0.995450       0.965446       0.999995     
  0.999999       0.761449       0.978649       0.993747       0.993764       0.999102       0.998415       0.998986        1.00000       0.996418     
  0.999998       0.999968       0.999983       0.999992       0.999996       0.999887       0.999944       0.997875       0.996017       0.969148     
  0.999996        1.00000       0.795936       0.982468       0.994817       0.994852       0.999335       0.998632       0.999186        1.00000     
  0.997538       0.999999       0.999976       0.999988       0.999995       0.999998       0.998418       0.999900       0.998423       0.996895     
  0.973801       0.999997        1.00000       0.800881       0.982712       0.995042       0.995133       0.999383       0.998690       0.999235     
   1.00000       0.997806       0.999999       0.999978       0.999988       0.999995       0.999998       0.999838       0.999962       0.998535     
  0.996935       0.974405       0.999997        1.00000       0.838276       0.986901       0.996212       0.996335       0.999587       0.998963     
  0.999453        1.00000       0.998670       0.999999       0.999987       0.999993       0.999997       0.999999       0.997917       0.999907     
  0.999070       0.997993       0.979818       0.999998        1.00000       0.823419       0.984896       0.995847       0.996118       0.999549     
  0.998857       0.999406        1.00000       0.998234       0.999999       0.999982       0.999990       0.999996       0.999999       0.999453     
  0.999946       0.998910       0.997471       0.977419       0.999997        1.00000     
 
  0.669610       0.968482       0.990938       0.991289       0.998457       0.997848       0.998493       0.999999       0.992744       0.999996     
  0.999938       0.999968       0.999984       0.999991       0.999517       0.999858       0.996364       0.993967       0.956859       0.999994     
  0.999999       0.705625       0.972585       0.991839       0.992001       0.998672       0.998037       0.998645       0.999999       0.994382     
  0.999997       0.999952       0.999976       0.999988       0.999994       0.999873       0.999914       0.996837       0.994580       0.961429     
  0.999995       0.999999       0.751131       0.977665       0.993356       0.993325       0.999018       0.998318       0.998905        1.00000     
  0.995851       0.999998       0.999965       0.999983       0.999992       0.999996       0.998278       0.999871       0.997680       0.995814     
  0.967721       0.999996       0.999999       0.756259       0.978108       0.993412       0.993425       0.999038       0.998355       0.998926     
   1.00000       0.996498       0.999998       0.999966       0.999983       0.999992       0.999996       0.999838       0.999942       0.997678     
  0.995725       0.968122       0.999996       0.999999       0.810008       0.984083       0.995310       0.995331       0.999417       0.998745     
  0.999274        1.00000       0.997819       0.999999       0.999981       0.999990       0.999996       0.999998       0.997484       0.999882     
  0.998686       0.997384       0.976074       0.999998        1.00000       0.784215       0.980843       0.994510       0.994645       0.999288     
  0.998557       0.999139        1.00000       0.997011       0.999999       0.999972       0.999985       0.999993       0.999997       0.999318     
  0.999924       0.998276       0.996493       0.971840       0.999996        1.00000     
 
  0.597873       0.959968       0.988615       0.989631       0.997879       0.997391       0.998115       0.999999       0.989392       0.999994     
  0.999911       0.999957       0.999977       0.999986       0.999340       0.999779       0.995101       0.992300       0.946474       0.999992     
  0.999999       0.639997       0.965117       0.989584       0.990266       0.998135       0.997604       0.998271       0.999999       0.991647     
  0.999995       0.999930       0.999966       0.999982       0.999990       0.999797       0.999870       0.995593       0.992897       0.952080     
  0.999993       0.999999       0.692833       0.971105       0.991517       0.991671       0.998581       0.997947       0.998576       0.999999     
  0.993194       0.999997       0.999948       0.999976       0.999988       0.999992       0.998195       0.999827       0.996690       0.994440     
  0.959813       0.999995       0.999999       0.702565       0.972290       0.991471       0.991680       0.998603       0.997979       0.998585     
  0.999999       0.994679       0.999997       0.999951       0.999976       0.999988       0.999994       0.999827       0.999913       0.996599     
  0.994242       0.960535       0.999994       0.999999       0.774693       0.980359       0.994258       0.994199       0.999198       0.998503     
  0.999067        1.00000       0.996538       0.999998       0.999973       0.999987       0.999994       0.999996       0.997051       0.999850     
  0.998195       0.996631       0.971489       0.999997        1.00000       0.730547       0.974997       0.992688       0.992808       0.998879     
  0.998184       0.998798        1.00000       0.994864       0.999998       0.999956       0.999978       0.999989       0.999995       0.999204     
  0.999888       0.997295       0.995117       0.964352       0.999995       0.999999     
 
  0.518026       0.949683       0.985963       0.987994       0.997179       0.996846       0.997702       0.999998       0.985301       0.999990     
  0.999873       0.999943       0.999969       0.999978       0.999095       0.999649       0.993715       0.990513       0.933862       0.999989     
  0.999998       0.564953       0.956026       0.986946       0.988546       0.997475       0.997085       0.997858       0.999999       0.988165     
  0.999993       0.999902       0.999954       0.999975       0.999983       0.999637       0.999805       0.994188       0.991008       0.940707     
  0.999991       0.999999       0.625610       0.963167       0.989442       0.990142       0.998044       0.997532       0.998228       0.999999     
  0.989671       0.999994       0.999925       0.999967       0.999983       0.999987       0.998175       0.999757       0.995566       0.992945     
  0.950410       0.999993       0.999999       0.639114       0.965068       0.989186       0.989969       0.998068       0.997548       0.998213     
  0.999999       0.992247       0.999995       0.999931       0.999968       0.999983       0.999990       0.999776       0.999872       0.995316     
  0.992504       0.951343       0.999993       0.999999       0.726753       0.974997       0.992964       0.992925       0.998905       0.998218     
  0.998825        1.00000       0.994511       0.999997       0.999961       0.999982       0.999991       0.999994       0.996629       0.999805     
  0.997554       0.995675       0.965363       0.999996       0.999999       0.671261       0.968288       0.990652       0.991127       0.998379     
  0.997790       0.998445       0.999999       0.992010       0.999996       0.999935       0.999969       0.999984       0.999991       0.999103     
  0.999837       0.996145       0.993589       0.955987       0.999993       0.999999     
 
  0.432897       0.937334       0.982969       0.986271       0.996332       0.996185       0.997246       0.999998       0.980493       0.999986     
  0.999823       0.999926       0.999960       0.999967       0.998781       0.999435       0.992246       0.988670       0.918485       0.999985     
  0.999997       0.482146       0.945008       0.983907       0.986753       0.996673       0.996451       0.997399       0.999998       0.983953     
  0.999989       0.999865       0.999940       0.999967       0.999974       0.999389       0.999711       0.992688       0.988976       0.926807     
  0.999988       0.999998       0.551827       0.953779       0.987200       0.988736       0.997410       0.997063       0.997865       0.999999     
  0.985492       0.999991       0.999895       0.999957       0.999976       0.999979       0.998135       0.999640       0.994399       0.991440     
  0.939364       0.999990       0.999999       0.565814       0.956201       0.986505       0.988272       0.997415       0.997030       0.997804     
  0.999999       0.989113       0.999993       0.999906       0.999957       0.999976       0.999985       0.999651       0.999814       0.993865     
  0.990539       0.940120       0.999990       0.999999       0.668192       0.968093       0.991553       0.991730       0.998553       0.997918     
  0.998579       0.999999       0.991710       0.999996       0.999944       0.999976       0.999988       0.999990       0.996290       0.999739     
  0.996843       0.994642       0.957808       0.999994       0.999999       0.603167       0.960177       0.988248       0.989475       0.997745     
  0.997316       0.998049       0.999999       0.988379       0.999993       0.999907       0.999958       0.999978       0.999984       0.998970     
  0.999759       0.994802       0.991849       0.945948       0.999991       0.999999     
 
  0.346537       0.922624       0.979572       0.984337       0.995299       0.995381       0.996725       0.999996       0.974979       0.999979     
  0.999756       0.999906       0.999950       0.999952       0.998411       0.999100       0.990684       0.986777       0.899594       0.999980     
  0.999996       0.395004       0.931740       0.980459       0.984784       0.995706       0.995679       0.996882       0.999997       0.979024     
  0.999984       0.999817       0.999922       0.999957       0.999962       0.999060       0.999575       0.991158       0.986869       0.909759     
  0.999984       0.999997       0.470635       0.942297       0.984689       0.987297       0.996640       0.996499       0.997467       0.999998     
  0.980692       0.999987       0.999858       0.999944       0.999969       0.999968       0.998035       0.999451       0.993171       0.989900     
  0.925706       0.999987       0.999998       0.483658       0.945336       0.983366       0.986463       0.996615       0.996388       0.997343     
  0.999998       0.985207       0.999990       0.999874       0.999943       0.999968       0.999977       0.999446       0.999732       0.992293     
  0.988380       0.926276       0.999987       0.999998       0.604812       0.960192       0.990102       0.990672       0.998154       0.997607     
  0.998335       0.999999       0.988372       0.999994       0.999923       0.999968       0.999984       0.999986       0.996011       0.999647     
  0.996130       0.993633       0.949148       0.999993       0.999999       0.524926       0.950084       0.985385       0.987759       0.996934     
  0.996720       0.997593       0.999998       0.983885       0.999989       0.999868       0.999944       0.999970       0.999974       0.998788     
  0.999631       0.993275       0.989899       0.933493       0.999987       0.999998     
 
  0.261542       0.904737       0.975556       0.982008       0.993988       0.994374       0.996092       0.999994       0.968441       0.999971     
  0.999667       0.999882       0.999938       0.999930       0.997981       0.998566       0.988923       0.984754       0.875481       0.999974     
  0.999995       0.308471       0.915923       0.976563       0.982538       0.994539       0.994747       0.996288       0.999995       0.973316     
  0.999977       0.999757       0.999901       0.999945       0.999944       0.998667       0.999381       0.989622       0.984712       0.888774     
  0.999979       0.999997       0.385382       0.928402       0.981841       0.985719       0.995701       0.995816       0.997017       0.999997     
  0.975345       0.999982       0.999811       0.999928       0.999960       0.999953       0.997862       0.999164       0.991872       0.988317     
  0.908625       0.999983       0.999997       0.395743       0.932103       0.979709       0.984391       0.995632       0.995585       0.996809     
  0.999997       0.980464       0.999985       0.999831       0.999926       0.999958       0.999965       0.999158       0.999614       0.990651     
  0.986067       0.909090       0.999984       0.999998       0.532579       0.950489       0.988433       0.989590       0.997656       0.997239     
  0.998062       0.999999       0.984428       0.999992       0.999896       0.999959       0.999979       0.999979       0.995745       0.999510     
  0.995339       0.992549       0.938228       0.999990       0.999998       0.438579       0.937552       0.982057       0.985900       0.995919     
  0.995973       0.997069       0.999998       0.978604       0.999983       0.999812       0.999926       0.999959       0.999960       0.998541     
  0.999415       0.991622       0.987820       0.917938       0.999983       0.999997     
 
  0.186278       0.883947       0.970938       0.979268       0.992388       0.993167       0.995338       0.999990       0.960901       0.999960     
  0.999556       0.999853       0.999925       0.999902       0.997515       0.997794       0.986954       0.982621       0.845602       0.999966     
  0.999993       0.228277       0.897356       0.972152       0.979932       0.993124       0.993634       0.995590       0.999992       0.966692     
  0.999969       0.999684       0.999877       0.999932       0.999921       0.998234       0.999105       0.988063       0.982490       0.862976     
  0.999973       0.999995       0.301058       0.911882       0.978593       0.983917       0.994576       0.994997       0.996502       0.999995     
  0.969512       0.999976       0.999755       0.999910       0.999951       0.999935       0.997622       0.998758       0.990489       0.986666     
  0.887204       0.999978       0.999996       0.305822       0.915873       0.975405       0.981892       0.994404       0.994574       0.996165     
  0.999995       0.974767       0.999979       0.999773       0.999905       0.999945       0.999948       0.998793       0.999445       0.988950     
  0.983586       0.887292       0.999979       0.999997       0.453353       0.938688       0.986493       0.988437       0.997043       0.996793     
  0.997753       0.999998       0.980059       0.999989       0.999861       0.999948       0.999973       0.999970       0.995492       0.999307     
  0.994455       0.991381       0.924359       0.999987       0.999998       0.348360       0.922128       0.978249       0.983789       0.994675     
  0.995051       0.996464       0.999996       0.972635       0.999975       0.999736       0.999903       0.999947       0.999940       0.998216     
  0.999056       0.989871       0.985673       0.898328       0.999978       0.999996     
 
  0.127164       0.861178       0.965871       0.976214       0.990570       0.991815       0.994486       0.999983       0.952579       0.999948     
  0.999427       0.999821       0.999912       0.999869       0.997033       0.996836       0.984863       0.980425       0.810602       0.999956     
  0.999990       0.159316       0.875874       0.967131       0.976900       0.991418       0.992322       0.994762       0.999987       0.958979     
  0.999958       0.999597       0.999848       0.999918       0.999890       0.997784       0.998721       0.986435       0.980158       0.831386     
  0.999966       0.999994       0.223123       0.892589       0.974896       0.981838       0.993266       0.994035       0.995915       0.999992     
  0.963182       0.999969       0.999687       0.999887       0.999940       0.999913       0.997323       0.998219       0.989004       0.984917     
  0.860389       0.999971       0.999995       0.221206       0.896333       0.970407       0.978888       0.992880       0.993334       0.995384     
  0.999992       0.968020       0.999970       0.999698       0.999879       0.999931       0.999924       0.998375       0.999203       0.987213     
  0.980964       0.859753       0.999973       0.999996       0.370729       0.924544       0.984229       0.987156       0.996303       0.996250     
  0.997401       0.999997       0.975375       0.999986       0.999817       0.999934       0.999967       0.999960       0.995248       0.999015     
  0.993464       0.990116       0.906740       0.999983       0.999997       0.260462       0.903437       0.973882       0.981315       0.993167     
  0.993932       0.995756       0.999994       0.965943       0.999965       0.999636       0.999875       0.999933       0.999914       0.997811     
  0.998490       0.987973       0.983444       0.873405       0.999970       0.999994     
 
  0.827076E-001  0.835790       0.960161       0.972752       0.988487       0.990281       0.993507       0.999974       0.943059       0.999933     
  0.999276       0.999784       0.999898       0.999829       0.996500       0.995704       0.982609       0.978059       0.769039       0.999945     
  0.999987       0.104864       0.851443       0.961442       0.973418       0.989409       0.990805       0.993793       0.999980       0.950068     
  0.999946       0.999493       0.999816       0.999902       0.999853       0.997329       0.998204       0.984698       0.977678       0.793195     
  0.999957       0.999992       0.156409       0.870425       0.970710       0.979455       0.991778       0.992930       0.995253       0.999987     
  0.956258       0.999962       0.999608       0.999861       0.999929       0.999888       0.996979       0.997544       0.987407       0.983031     
  0.827097       0.999963       0.999993       0.150413       0.873801       0.964820       0.975448       0.991058       0.991891       0.994464     
  0.999987       0.960152       0.999958       0.999604       0.999848       0.999915       0.999892       0.997943       0.998873       0.985477     
  0.978280       0.826187       0.999965       0.999994       0.289391       0.907835       0.981588       0.985689       0.995432       0.995597     
  0.997003       0.999994       0.970332       0.999982       0.999764       0.999917       0.999960       0.999947       0.995006       0.998616     
  0.992353       0.988737       0.884396       0.999978       0.999996       0.181906       0.881238       0.968854       0.978390       0.991362     
  0.992598       0.994919       0.999990       0.958301       0.999953       0.999507       0.999841       0.999917       0.999881       0.997331     
  0.997660       0.985863       0.981090       0.841786       0.999960       0.999992     
 
  0.517164E-001  0.807816       0.953754       0.968871       0.986134       0.988562       0.992398       0.999959       0.932181       0.999916     
  0.999102       0.999741       0.999883       0.999783       0.995904       0.994446       0.980234       0.975484       0.720538       0.999931     
  0.999984       0.652390E-001  0.823874       0.954985       0.969452       0.987091       0.989074       0.992672       0.999968       0.939763     
  0.999931       0.999371       0.999778       0.999886       0.999807       0.996842       0.997527       0.982804       0.974991       0.747388     
  0.999947       0.999990       0.103875       0.845337       0.965994       0.976757       0.990121       0.991687       0.994513       0.999979     
  0.948609       0.999953       0.999516       0.999831       0.999917       0.999860       0.996595       0.996738       0.985693       0.980968     
  0.786359       0.999954       0.999991       0.962311E-001  0.848180       0.958597       0.971580       0.988940       0.990250       0.993403     
  0.999979       0.951109       0.999945       0.999488       0.999812       0.999898       0.999853       0.997504       0.998422       0.983685     
  0.975492       0.785683       0.999956       0.999992       0.214546       0.888389       0.978519       0.983988       0.994425       0.994822     
  0.996554       0.999991       0.964816       0.999977       0.999700       0.999897       0.999952       0.999933       0.994753       0.998092     
  0.991103       0.987216       0.856250       0.999972       0.999994       0.118169       0.855341       0.963070       0.974964       0.989243     
  0.991037       0.993935       0.999984       0.949497       0.999938       0.999346       0.999799       0.999900       0.999841       0.996784     
  0.996549       0.983502       0.978552       0.801997       0.999948       0.999989     
 
  0.314396E-001  0.777372       0.946615       0.964576       0.983524       0.986660       0.991160       0.999939       0.919904       0.999898     
  0.998905       0.999693       0.999867       0.999731       0.995240       0.993099       0.977771       0.972666       0.665166       0.999915     
  0.999980       0.386425E-001  0.792924       0.947642       0.964957       0.984466       0.987116       0.991393       0.999951       0.927912     
  0.999914       0.999228       0.999733       0.999867       0.999755       0.996298       0.996676       0.980709       0.972020       0.692899     
  0.999934       0.999987       0.658062E-001  0.817269       0.960700       0.973739       0.988294       0.990306       0.993694       0.999966     
  0.940081       0.999944       0.999410       0.999795       0.999904       0.999830       0.996170       0.995815       0.983868       0.978685     
  0.737394       0.999943       0.999989       0.580535E-001  0.819191       0.951601       0.967230       0.986526       0.988397       0.992192     
  0.999966       0.940749       0.999928       0.999347       0.999769       0.999879       0.999806       0.997030       0.997812       0.981752     
  0.972508       0.737023       0.999944       0.999990       0.150726       0.866090       0.974970       0.982014       0.993281       0.993921     
  0.996048       0.999984       0.958730       0.999972       0.999625       0.999873       0.999944       0.999916       0.994483       0.997435     
  0.989702       0.985521       0.821232       0.999964       0.999992       0.717259E-001  0.825690       0.956466       0.971025       0.986824     
  0.989253       0.992803       0.999973       0.939362       0.999920       0.999151       0.999749       0.999881       0.999794       0.996169     
  0.995191       0.980910       0.975775       0.752839       0.999932       0.999985     
 
  0.186699E-001  0.744543       0.938708       0.959871       0.980670       0.984579       0.989800       0.999912       0.906276       0.999876     
  0.998684       0.999639       0.999851       0.999673       0.994520       0.991673       0.975231       0.969563       0.603332       0.999896     
  0.999975       0.223447E-001  0.759434       0.939550       0.960051       0.981635       0.984988       0.989999       0.999926       0.914899     
  0.999895       0.999065       0.999682       0.999848       0.999697       0.995706       0.995675       0.978453       0.968785       0.631049     
  0.999919       0.999983       0.402168E-001  0.786213       0.954775       0.970402       0.986295       0.988787       0.992793       0.999947     
  0.930529       0.999933       0.999289       0.999754       0.999891       0.999796       0.995701       0.994795       0.981952       0.976136     
  0.679823       0.999929       0.999986       0.334523E-001  0.786862       0.943769       0.962391       0.983846       0.986336       0.990840     
  0.999947       0.929053       0.999910       0.999180       0.999718       0.999859       0.999753       0.996498       0.997025       0.979634     
  0.969265       0.679675       0.999930       0.999986       0.100489       0.840846       0.970875       0.979729       0.991994       0.992888     
  0.995480       0.999975       0.951963       0.999966       0.999537       0.999844       0.999935       0.999898       0.994195       0.996654     
  0.988148       0.983610       0.778369       0.999955       0.999990       0.412007E-001  0.792235       0.948962       0.966567       0.984113     
  0.987247       0.991521       0.999955       0.927708       0.999900       0.998921       0.999689       0.999861       0.999740       0.995471     
  0.993651       0.978146       0.972695       0.693482       0.999913       0.999980     
 
  0.107362E-001  0.709378       0.929981       0.954750       0.977582       0.982319       0.988323       0.999875       0.891372       0.999853     
  0.998438       0.999578       0.999833       0.999611       0.993750       0.990149       0.972588       0.966126       0.535820       0.999874     
  0.999969       0.126550E-001  0.723786       0.930747       0.954786       0.978662       0.982721       0.988520       0.999892       0.901069     
  0.999874       0.998883       0.999625       0.999828       0.999637       0.995085       0.994563       0.976067       0.965257       0.563173     
  0.999901       0.999980       0.239279E-001  0.752211       0.948148       0.966738       0.984122       0.987124       0.991811       0.999921     
  0.919898       0.999921       0.999151       0.999706       0.999877       0.999760       0.995186       0.993682       0.979941       0.973264     
  0.613893       0.999914       0.999982       0.186300E-001  0.751319       0.935057       0.957071       0.980942       0.984079       0.989361     
  0.999919       0.916128       0.999889       0.998985       0.999660       0.999837       0.999694       0.995907       0.996056       0.977305     
  0.965705       0.613792       0.999913       0.999982       0.640131E-001  0.812632       0.966161       0.977099       0.990563       0.991718     
  0.994841       0.999960       0.944415       0.999959       0.999435       0.999810       0.999925       0.999877       0.993887       0.995760     
  0.986443       0.981436       0.727039       0.999944       0.999988       0.227119E-001  0.754979       0.940466       0.961583       0.981118     
  0.985015       0.990093       0.999929       0.914436       0.999877       0.998654       0.999618       0.999840       0.999680       0.994680     
  0.991998       0.975278       0.969241       0.623755       0.999890       0.999974     
 
  0.583025E-002  0.672013       0.920391       0.949217       0.974273       0.979884       0.986735       0.999829       0.875321       0.999828     
  0.998166       0.999509       0.999815       0.999543       0.992930       0.988492       0.969806       0.962303       0.464063       0.999849     
  0.999962       0.680727E-002  0.685539       0.921052       0.949085       0.975521       0.980286       0.986943       0.999847       0.886390     
  0.999852       0.998680       0.999560       0.999808       0.999573       0.994424       0.993324       0.973508       0.961323       0.489601     
  0.999881       0.999975       0.137980E-001  0.715307       0.940699       0.962696       0.981769       0.985304       0.990740       0.999885     
  0.908213       0.999908       0.998993       0.999650       0.999862       0.999722       0.994636       0.992461       0.977795       0.969990     
  0.540547       0.999895       0.999978       0.997081E-002  0.712599       0.925390       0.951265       0.977838       0.981629       0.987768     
  0.999880       0.902117       0.999865       0.998762       0.999591       0.999815       0.999632       0.995270       0.994931       0.974774     
  0.961754       0.540139       0.999892       0.999978       0.393522E-001  0.781450       0.960749       0.974100       0.988984       0.990404     
  0.994124       0.999939       0.936016       0.999950       0.999319       0.999771       0.999914       0.999855       0.993543       0.994750     
  0.984579       0.978947       0.667106       0.999931       0.999984       0.119996E-001  0.713999       0.930890       0.956068       0.977850     
  0.982557       0.988525       0.999890       0.899602       0.999852       0.998349       0.999534       0.999818       0.999615       0.993800     
  0.990242       0.972321       0.965329       0.544558       0.999862       0.999966     
 
  0.283267E-002  0.632649       0.909897       0.943273       0.970758       0.977279       0.985045       0.999772       0.858287       0.999800     
  0.997869       0.999433       0.999797       0.999472       0.992061       0.986664       0.966838       0.958039       0.390120       0.999821     
  0.999955       0.331099E-002  0.644893       0.910398       0.942937       0.972223       0.977684       0.985275       0.999790       0.870972     
  0.999827       0.998454       0.999487       0.999786       0.999508       0.993719       0.991946       0.970751       0.956916       0.412454     
  0.999857       0.999970       0.753133E-002  0.675648       0.932290       0.958212       0.979236       0.983311       0.989572       0.999838     
  0.895534       0.999893       0.998815       0.999586       0.999846       0.999681       0.994049       0.991115       0.975466       0.966223     
  0.461689       0.999873       0.999973       0.495275E-002  0.670738       0.914665       0.944955       0.974547       0.978985       0.986069     
  0.999827       0.887167       0.999840       0.998510       0.999513       0.999791       0.999567       0.994587       0.993654       0.972027     
  0.957319       0.460246       0.999868       0.999972       0.234760E-001  0.747270       0.954551       0.970705       0.987254       0.988939     
  0.993322       0.999911       0.926708       0.999941       0.999185       0.999725       0.999902       0.999831       0.993157       0.993616     
  0.982543       0.976078       0.598935       0.999916       0.999981       0.586823E-002  0.669361       0.920075       0.949975       0.974307     
  0.979860       0.986817       0.999836       0.883306       0.999823       0.998003       0.999437       0.999794       0.999545       0.992842     
  0.988331       0.969201       0.960839       0.457940       0.999828       0.999957     
 
  0.111050E-002  0.591531       0.898453       0.936922       0.967059       0.974511       0.983262       0.999703       0.840469       0.999770     
  0.997546       0.999347       0.999778       0.999399       0.991142       0.984633       0.963634       0.953268       0.316575       0.999789     
  0.999947       0.129428E-002  0.602086       0.898700       0.936327       0.968772       0.974914       0.983517       0.999719       0.854923     
  0.999801       0.998201       0.999403       0.999764       0.999441       0.992964       0.990403       0.967757       0.951957       0.334557     
  0.999830       0.999964       0.370129E-002  0.633482       0.922810       0.953249       0.976517       0.981135       0.988302       0.999778     
  0.881882       0.999875       0.998612       0.999513       0.999828       0.999638       0.993422       0.989632       0.972929       0.961882     
  0.380212       0.999848       0.999967       0.209798E-002  0.625807       0.902704       0.938065       0.971068       0.976131       0.984257     
  0.999759       0.871397       0.999812       0.998228       0.999422       0.999765       0.999500       0.993846       0.992195       0.969003     
  0.952272       0.376612       0.999839       0.999966       0.135106E-001  0.710144       0.947478       0.966894       0.985367       0.987313     
  0.992431       0.999873       0.916457       0.999929       0.999035       0.999672       0.999889       0.999805       0.992727       0.992355     
  0.980331       0.972761       0.523744       0.999899       0.999977       0.243839E-002  0.621363       0.907813       0.943210       0.970478     
  0.976902       0.984957       0.999763       0.865664       0.999790       0.997610       0.999323       0.999768       0.999471       0.991800     
  0.986177       0.965789       0.955626       0.367599       0.999789       0.999947     
 
  0.333424E-003  0.549015       0.886019       0.930173       0.963206       0.971588       0.981399       0.999621       0.822100       0.999738     
  0.997197       0.999253       0.999758       0.999323       0.990175       0.982384       0.960161       0.947922       0.246432       0.999752     
  0.999937       0.336500E-003  0.557433       0.885859       0.929238       0.965154       0.971965       0.981665       0.999633       0.838220     
  0.999772       0.997921       0.999310       0.999740       0.999372       0.992157       0.988690       0.964507       0.946360       0.259328     
  0.999798       0.999957       0.146462E-002  0.589094       0.912127       0.947764       0.973589       0.978757       0.986922       0.999704     
  0.867184       0.999856       0.998385       0.999429       0.999810       0.999592       0.992749       0.987996       0.970155       0.956874     
  0.299703       0.999820       0.999961       0.590161E-003  0.577482       0.889152       0.930431       0.967367       0.973013       0.982305     
  0.999670       0.854810       0.999781       0.997909       0.999315       0.999738       0.999430       0.993021       0.990482       0.965572     
  0.946397       0.291994       0.999805       0.999958       0.732531E-002  0.670188       0.939437       0.962648       0.983319       0.985518     
  0.991450       0.999825       0.905245       0.999916       0.998865       0.999611       0.999875       0.999777       0.992249       0.990973     
  0.977945       0.968925       0.443633       0.999878       0.999972       0.679590E-003  0.570540       0.893912       0.935697       0.966359     
  0.973661       0.982935       0.999670       0.846793       0.999754       0.997167       0.999191       0.999741       0.999392       0.990667     
  0.983701       0.961971       0.949548       0.278743       0.999742       0.999935     
 
  0.104871E-003  0.505560       0.872563       0.923038       0.959229       0.968520       0.979466       0.999524       0.803411       0.999703     
  0.996821       0.999148       0.999738       0.999247       0.989159       0.979903       0.956397       0.941932       0.182759       0.999712     
  0.999927       0.885860E-004  0.511430       0.871782       0.921655       0.961353       0.968826       0.979717       0.999530       0.820835     
  0.999742       0.997613       0.999204       0.999716       0.999302       0.991300       0.986807       0.960992       0.940039       0.190511     
  0.999762       0.999949       0.433933E-003  0.542910       0.900107       0.941717       0.970430       0.976160       0.985421       0.999614     
  0.851380       0.999833       0.998129       0.999333       0.999790       0.999543       0.992024       0.986184       0.967106       0.951101     
  0.224241       0.999787       0.999954       0.926409E-004  0.527102       0.874050       0.922128       0.963456       0.969655       0.980229     
  0.999561       0.837470       0.999747       0.997554       0.999194       0.999710       0.999359       0.992122       0.988542       0.961773     
  0.939657       0.212843       0.999766       0.999949       0.357377E-002  0.627583       0.930318       0.957941       0.981100       0.983544     
  0.990376       0.999765       0.893049       0.999901       0.998675       0.999540       0.999859       0.999747       0.991723       0.989455     
  0.975364       0.964481       0.361546       0.999855       0.999966       0.843849E-004  0.517528       0.878178       0.927372       0.961921     
  0.970114       0.980739       0.999551       0.826699       0.999713       0.996671       0.999040       0.999712       0.999309       0.989435     
  0.980833       0.957638       0.942456       0.197146       0.999688       0.999921     
 
  0.644717E-004  0.461662       0.858055       0.915536       0.955169       0.965320       0.977479       0.999412       0.784670       0.999667     
  0.996419       0.999032       0.999718       0.999171       0.988095       0.977164       0.952309       0.935224       0.128128       0.999666     
  0.999915       0.507221E-004  0.464674       0.856381       0.913568       0.957361       0.965491       0.977669       0.999408       0.802794     
  0.999708       0.997276       0.999086       0.999691       0.999230       0.990392       0.984738       0.957190       0.932903       0.131403     
  0.999722       0.999940       0.155575E-003  0.495518       0.886622       0.935071       0.967026       0.973331       0.983792       0.999506     
  0.834473       0.999808       0.997843       0.999223       0.999768       0.999491       0.991241       0.984174       0.963740       0.944463     
  0.157786       0.999749       0.999945       0.366915E-004  0.476095       0.857431       0.913213       0.959301       0.966062       0.978026     
  0.999431       0.819169       0.999710       0.997168       0.999057       0.999680       0.999286       0.991158       0.986409       0.957651     
  0.932036       0.144948       0.999721       0.999939       0.140678E-002  0.582561       0.919980       0.952733       0.978690       0.981374     
  0.989199       0.999692       0.879776       0.999885       0.998463       0.999459       0.999843       0.999715       0.991147       0.987768     
  0.972543       0.959324       0.281088       0.999827       0.999960       0.370118E-004  0.463197       0.860429       0.918190       0.957139     
  0.966238       0.978356       0.999407       0.805373       0.999667       0.996120       0.998866       0.999681       0.999221       0.988095     
  0.977550       0.952730       0.934199       0.128180       0.999626       0.999905     
 
  0.642766E-004  0.417873       0.842476       0.907693       0.951078       0.962003       0.975455       0.999285       0.766216       0.999629     
  0.995990       0.998904       0.999697       0.999096       0.986983       0.974143       0.947866       0.927722       0.841796E-001  0.999616     
  0.999902       0.468069E-004  0.417872       0.839566       0.904955       0.953187       0.961953       0.975522       0.999268       0.784225     
  0.999672       0.996907       0.998954       0.999665       0.999157       0.989434       0.982466       0.953064       0.924853       0.842209E-001
  0.999675       0.999930       0.114548E-003  0.447590       0.871537       0.927781       0.963368       0.970255       0.982028       0.999380     
  0.816501       0.999780       0.997523       0.999099       0.999745       0.999436       0.990396       0.981947       0.960018       0.936858     
  0.103335       0.999706       0.999936       0.352173E-004  0.424656       0.838959       0.903542       0.954811       0.962165       0.975653     
  0.999276       0.799555       0.999669       0.996745       0.998902       0.999648       0.999209       0.990113       0.984030       0.953115     
  0.923325       0.906506E-001  0.999670       0.999928       0.309235E-003  0.533658       0.907782       0.946756       0.975954       0.978892     
  0.987860       0.999600       0.864690       0.999865       0.998216       0.999363       0.999824       0.999679       0.990494       0.985808     
  0.969313       0.953088       0.203597       0.999795       0.999952       0.365500E-004  0.407364       0.840033       0.907887       0.951876     
  0.961918       0.975722       0.999227       0.782363       0.999615       0.995497       0.998663       0.999648       0.999127       0.986602     
  0.973711       0.947039       0.924388       0.742710E-001  0.999553       0.999886     
 
  0.626262E-004  0.374727       0.825779       0.899522       0.946991       0.958579       0.973408       0.999142       0.748277       0.999589     
  0.995533       0.998763       0.999676       0.999025       0.985817       0.970819       0.943042       0.919337       0.512941E-001  0.999560     
  0.999888       0.420390E-004  0.371726       0.821219       0.895776       0.948846       0.958204       0.973273       0.999109       0.765296     
  0.999632       0.996502       0.998806       0.999637       0.999083       0.988422       0.979974       0.948571       0.915774       0.495593E-001
  0.999622       0.999918       0.114548E-003  0.399844       0.854720       0.919805       0.959451       0.966917       0.980121       0.999235     
  0.797531       0.999748       0.997165       0.998958       0.999720       0.999377       0.989483       0.979483       0.955902       0.928179     
  0.622284E-001  0.999657       0.999925       0.334054E-004  0.373781       0.818521       0.893088       0.950014       0.957962       0.973114     
  0.999096       0.778921       0.999624       0.996282       0.998727       0.999613       0.999127       0.988984       0.981364       0.948101     
  0.913387       0.512643E-001  0.999611       0.999915       0.144386E-003  0.483351       0.893961       0.940182       0.972968       0.976168     
  0.986396       0.999491       0.848240       0.999842       0.997941       0.999252       0.999803       0.999640       0.989783       0.983615     
  0.965745       0.945840       0.136933       0.999757       0.999944       0.359290E-004  0.350304       0.816240       0.896177       0.946004     
  0.957031       0.972769       0.999006       0.757279       0.999554       0.994783       0.998421       0.999610       0.999025       0.984905     
  0.969137       0.940314       0.912522       0.366648E-001  0.999465       0.999863     
 
  0.592468E-004  0.332172       0.807642       0.890908       0.942880       0.955002       0.971317       0.998978       0.730783       0.999546     
  0.995038       0.998605       0.999654       0.998956       0.984575       0.967114       0.937730       0.909832       0.283648E-001  0.999496     
  0.999873       0.377565E-004  0.326997       0.801271       0.886017       0.944352       0.954240       0.970926       0.998928       0.746183     
  0.999590       0.996058       0.998641       0.999608       0.999009       0.987356       0.977246       0.943679       0.905575       0.264130E-001
  0.999563       0.999906       0.112575E-003  0.353044       0.836068       0.911126       0.955282       0.963311       0.978072       0.999069     
  0.777717       0.999713       0.996765       0.998799       0.999693       0.999316       0.988492       0.976746       0.951345       0.918325     
  0.339723E-001  0.999601       0.999912       0.275944E-004  0.324456       0.796008       0.881821       0.944937       0.953448       0.970413     
  0.998889       0.757586       0.999575       0.995775       0.998530       0.999576       0.999044       0.987765       0.978375       0.942546     
  0.902082       0.257337E-001  0.999544       0.999901       0.144386E-003  0.434377       0.878918       0.933204       0.969840       0.973293     
  0.984854       0.999369       0.831134       0.999818       0.997643       0.999129       0.999781       0.999600       0.989032       0.981233     
  0.961911       0.937781       0.860785E-001  0.999716       0.999935       0.304446E-004  0.296880       0.790292       0.883737       0.939869     
  0.951854       0.969669       0.998752       0.731781       0.999487       0.994016       0.998152       0.999570       0.998920       0.983089     
  0.964054       0.932900       0.899095       0.155757E-001  0.999366       0.999839     
 
  0.540378E-004  0.290779       0.787924       0.881838       0.938797       0.951274       0.969197       0.998792       0.714047       0.999501     
  0.994495       0.998426       0.999631       0.998892       0.983246       0.962962       0.931854       0.899038       0.139234E-001  0.999424     
  0.999855       0.338539E-004  0.284372       0.779674       0.875681       0.939738       0.950066       0.968488       0.998725       0.727146     
  0.999544       0.995569       0.998457       0.999578       0.998935       0.986233       0.974254       0.938352       0.894164       0.125374E-001
  0.999496       0.999891       0.105182E-003  0.307981       0.815511       0.901738       0.950891       0.959440       0.975888       0.998881     
  0.757356       0.999674       0.996312       0.998617       0.999664       0.999251       0.987421       0.973683       0.946288       0.907200     
  0.165328E-001  0.999537       0.999898       0.240873E-004  0.277666       0.771362       0.869748       0.939591       0.948619       0.967552     
  0.998653       0.735725       0.999522       0.995219       0.998307       0.999537       0.998958       0.986452       0.975017       0.936402     
  0.889297       0.112161E-001  0.999468       0.999885       0.144386E-003  0.385853       0.861992       0.925492       0.966451       0.970142     
  0.983166       0.999230       0.812850       0.999791       0.997299       0.998989       0.999757       0.999556       0.988210       0.978531     
  0.957598       0.928565       0.493500E-001  0.999668       0.999924       0.259066E-004  0.248484       0.762479       0.870722       0.933568     
  0.946448       0.966466       0.998467       0.706442       0.999416       0.993195       0.997854       0.999529       0.998814       0.981163     
  0.958494       0.924855       0.884166       0.560449E-002  0.999256       0.999812     
 
  0.481221E-004  0.252483       0.767228       0.872616       0.934902       0.947524       0.967126       0.998594       0.698749       0.999454     
  0.993917       0.998229       0.999608       0.998834       0.981869       0.958467       0.925578       0.887229       0.609850E-002  0.999345     
  0.999836       0.298292E-004  0.244494       0.756416       0.864780       0.935071       0.945695       0.965982       0.998502       0.708623     
  0.999494       0.995025       0.998250       0.999546       0.998864       0.985050       0.970953       0.932542       0.881455       0.519467E-002
  0.999420       0.999875       0.935108E-004  0.265386       0.792985       0.891634       0.946306       0.955304       0.973576       0.998673     
  0.736737       0.999630       0.995796       0.998410       0.999632       0.999186       0.986270       0.970245       0.940677       0.894704     
  0.702483E-002  0.999464       0.999882       0.208315E-004  0.234236       0.744547       0.856883       0.933984       0.943472       0.964538     
  0.998389       0.713474       0.999464       0.994606       0.998056       0.999495       0.998870       0.985034       0.971207       0.929593     
  0.874917       0.412585E-002  0.999381       0.999867       0.139989E-003  0.338590       0.843018       0.916980       0.962786       0.966697     
  0.981321       0.999073       0.793477       0.999760       0.996900       0.998829       0.999731       0.999509       0.987309       0.975471     
  0.952747       0.918085       0.254125E-001  0.999613       0.999912       0.217320E-004  0.204515       0.732093       0.856803       0.926983     
  0.940674       0.963091       0.998148       0.680991       0.999338       0.992288       0.997515       0.999485       0.998707       0.979073     
  0.952267       0.915931       0.867233       0.160312E-002  0.999130       0.999781     
 
  0.422104E-004  0.217523       0.745521       0.863223       0.931169       0.943736       0.965096       0.998387       0.684712       0.999406     
  0.993302       0.998015       0.999585       0.998782       0.980439       0.953641       0.918918       0.874357       0.234315E-002  0.999258     
  0.999815       0.259173E-004  0.207860       0.731467       0.853307       0.930383       0.941130       0.963414       0.998264       0.690837     
  0.999441       0.994415       0.998018       0.999513       0.998795       0.983802       0.967305       0.926208       0.867357       0.183180E-002
  0.999333       0.999856       0.807454E-004  0.225889       0.768429       0.880800       0.941537       0.950896       0.971138       0.998449     
  0.716009       0.999582       0.995213       0.998174       0.999599       0.999119       0.985035       0.966400       0.934471       0.880730     
  0.253776E-002  0.999380       0.999864       0.178048E-004  0.194842       0.715570       0.843251       0.928145       0.938011       0.961383     
  0.998103       0.691096       0.999401       0.993928       0.997772       0.999449       0.998781       0.983498       0.966859       0.922047     
  0.858823       0.123571E-002  0.999282       0.999847       0.126843E-003  0.293390       0.821895       0.907644       0.958859       0.962949     
  0.979319       0.998903       0.773260       0.999725       0.996446       0.998648       0.999702       0.999459       0.986319       0.972020     
  0.947315       0.906232       0.115356E-001  0.999551       0.999899       0.179697E-004  0.165612       0.699140       0.841983       0.920150     
  0.934533       0.959555       0.997800       0.655718       0.999252       0.991282       0.997131       0.999438       0.998600       0.976814     
  0.945332       0.906088       0.848135       0.344100E-003  0.998987       0.999746     
 
  0.365657E-004  0.185636       0.722525       0.853552       0.927569       0.939867       0.963087       0.998171       0.671874       0.999355     
  0.992640       0.997777       0.999562       0.998736       0.978937       0.948428       0.911799       0.860188       0.772332E-003  0.999161     
  0.999792       0.222854E-004  0.174830       0.704808       0.841248       0.925655       0.936356       0.960781       0.998015       0.673699     
  0.999384       0.993735       0.997757       0.999479       0.998729       0.982478       0.963281       0.919323       0.851787       0.548069E-003
  0.999235       0.999835       0.684466E-004  0.189988       0.741816       0.869225       0.936588       0.946211       0.968574       0.998212     
  0.695268       0.999529       0.994556       0.997907       0.999562       0.999051       0.983706       0.962114       0.927632       0.865185     
  0.764473E-003  0.999285       0.999842       0.150625E-004  0.159941       0.684454       0.828836       0.922115       0.932234       0.958095     
  0.997801       0.668961       0.999333       0.993179       0.997450       0.999400       0.998692       0.981837       0.961939       0.913724     
  0.840896       0.304479E-003  0.999169       0.999824       0.110157E-003  0.251005       0.798555       0.897470       0.954687       0.958894     
  0.977164       0.998723       0.752452       0.999687       0.995935       0.998443       0.999671       0.999406       0.985233       0.968143     
  0.941260       0.892902       0.451510E-002  0.999480       0.999883       0.144879E-004  0.131058       0.662461       0.825743       0.912875     
  0.927805       0.955748       0.997418       0.630152       0.999157       0.990128       0.996679       0.999386       0.998490       0.974295     
  0.937408       0.894938       0.825944       0.585178E-004  0.998817       0.999705     
 
  0.313036E-004  0.156962       0.698264       0.843640       0.924116       0.935924       0.961112       0.997949       0.660282       0.999304     
  0.991931       0.997514       0.999538       0.998695       0.977350       0.942790       0.904211       0.844629       0.232034E-003  0.999054     
  0.999766       0.189671E-004  0.145554       0.676449       0.828593       0.920865       0.931359       0.958074       0.997756       0.657121     
  0.999324       0.992981       0.997466       0.999443       0.998666       0.981053       0.958803       0.911822       0.834657       0.157026E-003
  0.999125       0.999811       0.572066E-004  0.157977       0.713152       0.856899       0.931462       0.941239       0.965885       0.997967     
  0.674623       0.999473       0.993822       0.997605       0.999523       0.998983       0.982255       0.957316       0.920090       0.847975     
  0.203149E-003  0.999177       0.999818       0.125781E-004  0.129697       0.651183       0.813530       0.915899       0.926111       0.954660     
  0.997486       0.647289       0.999262       0.992347       0.997088       0.999348       0.998605       0.980031       0.956420       0.904562     
  0.821030       0.818924E-004  0.999041       0.999798       0.929270E-004  0.211439       0.772482       0.886243       0.950188       0.954445     
  0.974813       0.998532       0.730763       0.999645       0.995355       0.998207       0.999637       0.999350       0.984001       0.963684     
  0.934379       0.877728       0.145794E-002  0.999399       0.999866       0.111154E-004  0.100985       0.621491       0.807815       0.905155     
  0.920388       0.951645       0.997004       0.604711       0.999050       0.988785       0.996140       0.999328       0.998378       0.971416     
  0.928219       0.882168       0.799910       0.179432E-004  0.998613       0.999656     
 
  0.264071E-004  0.131508       0.672767       0.833536       0.920770       0.931902       0.959168       0.997725       0.649663       0.999250     
  0.991179       0.997222       0.999513       0.998659       0.975641       0.936668       0.896130       0.827584       0.683415E-004  0.998935     
  0.999738       0.159158E-004  0.120012       0.646436       0.815338       0.916007       0.926128       0.955295       0.997494       0.641106     
  0.999261       0.992149       0.997141       0.999406       0.998605       0.979476       0.953779       0.903620       0.815884       0.434822E-004
  0.999000       0.999784       0.470813E-004  0.129938       0.682479       0.843813       0.926175       0.935977       0.963074       0.997717     
  0.654239       0.999413       0.993007       0.997265       0.999481       0.998914       0.980637       0.951926       0.911766       0.829013     
  0.525084E-004  0.999055       0.999791       0.102780E-004  0.103987       0.615798       0.797219       0.909506       0.919607       0.951063     
  0.997165       0.626320       0.999186       0.991422       0.996680       0.999292       0.998518       0.978032       0.950270       0.894492     
  0.799137       0.214098E-004  0.998896       0.999769       0.764017E-004  0.174320       0.742601       0.873505       0.945212       0.949422     
  0.972177       0.998329       0.707719       0.999598       0.994677       0.997927       0.999598       0.999290       0.982485       0.958254     
  0.926188       0.859962       0.347354E-003  0.999301       0.999845       0.793410E-005  0.773736E-001  0.579750       0.789630       0.897661     
  0.912874       0.947592       0.996601       0.581731       0.998942       0.987354       0.995549       0.999268       0.998276       0.968331     
  0.918362       0.868692       0.771962       0.755402E-005  0.998388       0.999603     
 
  0.218990E-004  0.109182       0.646066       0.823266       0.917487       0.927794       0.957249       0.997501       0.639726       0.999196     
  0.990384       0.996900       0.999488       0.998626       0.973805       0.930005       0.887532       0.808958       0.256908E-004  0.998805     
  0.999708       0.131353E-004  0.980316E-001  0.614861       0.801482       0.911087       0.920659       0.952445       0.997233       0.625711     
  0.999194       0.991239       0.996780       0.999367       0.998546       0.977726       0.948114       0.894646       0.795395       0.187107E-004
  0.998861       0.999754       0.381076E-004  0.105772       0.649907       0.829973       0.920777       0.930430       0.960157       0.997467     
  0.634495       0.999350       0.992111       0.996885       0.999436       0.998846       0.978814       0.945815       0.902548       0.808218     
  0.189242E-004  0.998919       0.999761       0.804262E-005  0.817865E-001  0.577147       0.779274       0.902792       0.912484       0.947196     
  0.996835       0.605953       0.999103       0.990352       0.996206       0.999229       0.998432       0.975737       0.943166       0.883047     
  0.774230       0.119182E-004  0.998726       0.999735       0.623457E-004  0.142431       0.710763       0.860026       0.940133       0.944142     
  0.969436       0.998132       0.685389       0.999548       0.993936       0.997614       0.999557       0.999229       0.980738       0.952031     
  0.917042       0.840549       0.756811E-004  0.999192       0.999823       0.463113E-005  0.588195E-001  0.537358       0.771046       0.890264     
  0.905183       0.943535       0.996217       0.560554       0.998831       0.985835       0.994902       0.999205       0.998181       0.965003     
  0.907775       0.854443       0.742060       0.603138E-005  0.998143       0.999545     
 
  0.170541E-004  0.898141E-001  0.618206       0.812826       0.914241       0.923590       0.955349       0.997282       0.630329       0.999141     
  0.989549       0.996544       0.999462       0.998595       0.971831       0.922767       0.878397       0.788663       0.118366E-004  0.998662     
  0.999675       0.100549E-004  0.793293E-001  0.581856       0.787019       0.906097       0.914941       0.949522       0.996977       0.610926     
  0.999125       0.990250       0.996380       0.999326       0.998490       0.975764       0.941676       0.884794       0.773127       0.104221E-004
  0.998706       0.999721       0.285888E-004  0.852273E-001  0.615601       0.815388       0.915330       0.924611       0.957151       0.997224     
  0.615793       0.999284       0.991133       0.996461       0.999387       0.998781       0.976740       0.938873       0.892343       0.785530     
  0.945584E-005  0.998766       0.999728       0.528075E-005  0.633420E-001  0.536232       0.760025       0.895971       0.904876       0.943156     
  0.996511       0.587160       0.999015       0.989140       0.995663       0.999162       0.998352       0.973112       0.935024       0.870249     
  0.746600       0.973560E-005  0.998530       0.999696       0.521459E-004  0.115959       0.677887       0.846139       0.935136       0.938740     
  0.966674       0.997950       0.664758       0.999498       0.993150       0.997276       0.999514       0.999172       0.978792       0.945243     
  0.907236       0.819928       0.316962E-004  0.999072       0.999798       0.220426E-005  0.439181E-001  0.493480       0.751443       0.882713     
  0.897057       0.939334       0.995850       0.540445       0.998717       0.984186       0.994179       0.999138       0.998089       0.961298     
  0.896155       0.839000       0.709414       0.596445E-005  0.997867       0.999482     
 
  0.105668E-004  0.731659E-001  0.589257       0.802202       0.911029       0.919287       0.953469       0.997073       0.621483       0.999086     
  0.988675       0.996152       0.999434       0.998567       0.969703       0.914929       0.868710       0.766613       0.835335E-005  0.998506     
  0.999639       0.571063E-005  0.635549E-001  0.547593       0.771942       0.901030       0.908966       0.946526       0.996733       0.596759     
  0.999055       0.989184       0.995939       0.999284       0.998436       0.973548       0.934367       0.873989       0.749023       0.897210E-005
  0.998534       0.999684       0.157407E-004  0.679522E-001  0.579745       0.800049       0.909859       0.918518       0.954066       0.996993     
  0.598307       0.999217       0.990074       0.995991       0.999335       0.998719       0.974393       0.931113       0.881170       0.760895     
  0.794196E-005  0.998597       0.999692       0.235446E-005  0.488349E-001  0.495410       0.740402       0.889329       0.897129       0.939130     
  0.996219       0.570586       0.998927       0.987840       0.995076       0.999092       0.998280       0.970218       0.926115       0.856637     
  0.717606       0.971923E-005  0.998316       0.999655       0.430998E-004  0.934249E-001  0.643021       0.831371       0.930084       0.933034     
  0.963805       0.997781       0.645337       0.999446       0.992289       0.996897       0.999467       0.999117       0.976538       0.937622     
  0.896405       0.797371       0.197996E-004  0.998938       0.999771       0.109951E-005  0.315740E-001  0.446262       0.729653       0.874672     
  0.888034       0.934773       0.995498       0.520914       0.998593       0.982305       0.993328       0.999061       0.997997       0.956935     
  0.882806       0.821445       0.672162       0.596445E-005  0.997542       0.999409     
 
  0.525568E-005  0.589583E-001  0.559317       0.791383       0.907866       0.914888       0.951614       0.996877       0.613326       0.999032     
  0.987763       0.995721       0.999405       0.998542       0.967403       0.906476       0.858462       0.742734       0.790983E-005  0.998335     
  0.999601       0.258156E-005  0.503394E-001  0.512296       0.756253       0.895915       0.902736       0.943467       0.996508       0.583419     
  0.998983       0.988044       0.995452       0.999239       0.998385       0.971058       0.926191       0.862250       0.723041       0.897210E-005
  0.998343       0.999645       0.677779E-005  0.531935E-001  0.541489       0.783454       0.904217       0.911956       0.950808       0.996777     
  0.581678       0.999146       0.988900       0.995455       0.999277       0.998659       0.971636       0.922218       0.868620       0.733516     
  0.787648E-005  0.998403       0.999651       0.102015E-005  0.371356E-001  0.454016       0.719896       0.882598       0.889009       0.934985     
  0.995957       0.555261       0.998837       0.986423       0.994427       0.999017       0.998212       0.966948       0.916230       0.841913     
  0.686608       0.971923E-005  0.998077       0.999608       0.273375E-004  0.744715E-001  0.606346       0.815707       0.924995       0.927018     
  0.960833       0.997630       0.627290       0.999393       0.991352       0.996475       0.999417       0.999065       0.973916       0.929097     
  0.884489       0.772826       0.166710E-004  0.998787       0.999741       0.831821E-006  0.217645E-001  0.396894       0.705746       0.866258     
  0.878150       0.929896       0.995181       0.502640       0.998462       0.980193       0.992342       0.998975       0.997910       0.951810     
  0.867737       0.801835       0.630558       0.596445E-005  0.997165       0.999327     
 
  0.284521E-005  0.469141E-001  0.528510       0.780353       0.904772       0.910396       0.949789       0.996699       0.606029       0.998978     
  0.986813       0.995246       0.999374       0.998519       0.964914       0.897398       0.847647       0.716976       0.775473E-005  0.998149     
  0.999560       0.146931E-005  0.393379E-001  0.476233       0.739953       0.890790       0.896257       0.940358       0.996305       0.571181     
  0.998910       0.986830       0.994917       0.999192       0.998339       0.968261       0.917165       0.849609       0.695169       0.897210E-005
  0.998132       0.999602       0.396031E-005  0.410286E-001  0.501975       0.765900       0.898516       0.905044       0.947443       0.996585     
  0.566327       0.999074       0.987635       0.994862       0.999214       0.998603       0.968434       0.912238       0.854838       0.703985     
  0.787648E-005  0.998188       0.999607       0.673107E-006  0.277015E-001  0.412201       0.698351       0.875697       0.880434       0.930680     
  0.995725       0.540984       0.998743       0.984877       0.993707       0.998939       0.998148       0.963218       0.905329       0.826017     
  0.653444       0.971923E-005  0.997810       0.999557       0.120838E-004  0.585156E-001  0.567626       0.798931       0.919806       0.920602     
  0.957722       0.997496       0.610455       0.999338       0.990321       0.995999       0.999363       0.999015       0.970866       0.919585     
  0.871369       0.745939       0.166710E-004  0.998617       0.999708       0.770606E-006  0.147907E-001  0.350482       0.681857       0.858156     
  0.868249       0.925122       0.994926       0.486954       0.998335       0.978045       0.991302       0.998886       0.997834       0.946326     
  0.852356       0.782024       0.588599       0.596445E-005  0.996766       0.999242     
 
  0.192726E-005  0.367850E-001  0.496985       0.769090       0.901759       0.905811       0.947997       0.996540       0.599739       0.998925     
  0.985825       0.994726       0.999341       0.998500       0.962220       0.887692       0.836268       0.689320       0.775473E-005  0.997946     
  0.999516       0.102877E-005  0.302537E-001  0.439690       0.723018       0.885671       0.889524       0.937203       0.996126       0.560209     
  0.998836       0.985543       0.994331       0.999142       0.998296       0.965099       0.907210       0.836008       0.665437       0.897210E-005
  0.997901       0.999556       0.274266E-005  0.313423E-001  0.462670       0.747866       0.892875       0.897955       0.944050       0.996423     
  0.552469       0.999002       0.986316       0.994225       0.999148       0.998551       0.964863       0.901527       0.840294       0.673246     
  0.787648E-005  0.997956       0.999561       0.606285E-006  0.201940E-001  0.370475       0.675777       0.868618       0.871389       0.926215     
  0.995525       0.527795       0.998646       0.983200       0.992913       0.998855       0.998088       0.958987       0.893471       0.809023     
  0.618226       0.971923E-005  0.997513       0.999501       0.504685E-005  0.447024E-001  0.525242       0.780156       0.914264       0.913444     
  0.954316       0.997377       0.594222       0.999277       0.989138       0.995440       0.999301       0.998966       0.967187       0.908624     
  0.856406       0.715261       0.166710E-004  0.998416       0.999670       0.770606E-006  0.975240E-002  0.306025       0.657286       0.850026     
  0.857994       0.920277       0.994715       0.472870       0.998207       0.975799       0.990174       0.998791       0.997764       0.940345     
  0.836272       0.761511       0.545384       0.596445E-005  0.996334       0.999152     
 
  0.140921E-005  0.283539E-001  0.464913       0.757577       0.898825       0.901127       0.946236       0.996400       0.594501       0.998874     
  0.984800       0.994156       0.999306       0.998483       0.959310       0.877357       0.824329       0.659785       0.775473E-005  0.997727     
  0.999470       0.878115E-006  0.228385E-001  0.402972       0.705435       0.880556       0.882527       0.934002       0.995970       0.550533     
  0.998762       0.984183       0.993688       0.999089       0.998258       0.961522       0.896261       0.821414       0.633912       0.897210E-005
  0.997647       0.999507       0.244601E-005  0.234961E-001  0.422968       0.728912       0.887112       0.890494       0.940536       0.996283     
  0.539537       0.998928       0.984910       0.993527       0.999077       0.998502       0.960844       0.889946       0.824764       0.640664     
  0.787648E-005  0.997701       0.999512       0.575769E-006  0.143293E-001  0.329364       0.652210       0.861325       0.861854       0.921580     
  0.995354       0.515595       0.998546       0.981392       0.992041       0.998766       0.998032       0.954233       0.880729       0.791036     
  0.581128       0.971923E-005  0.997183       0.999440       0.348043E-005  0.336893E-001  0.482372       0.760541       0.908695       0.905977     
  0.950824       0.997279       0.579567       0.999216       0.987871       0.994826       0.999235       0.998920       0.963076       0.896933     
  0.840593       0.682759       0.166710E-004  0.998194       0.999628       0.770606E-006  0.609729E-002  0.262458       0.631106       0.841505     
  0.846947       0.915156       0.994534       0.459742       0.998072       0.973360       0.988901       0.998685       0.997697       0.933599     
  0.818850       0.739524       0.499608       0.596445E-005  0.995847       0.999054     
 
  0.114973E-005  0.214278E-001  0.432491       0.745814       0.895940       0.896336       0.944500       0.996278       0.590189       0.998823     
  0.983739       0.993532       0.999267       0.998469       0.956168       0.866390       0.811844       0.628429       0.775473E-005  0.997490     
  0.999421       0.798014E-006  0.168729E-001  0.366401       0.687212       0.875396       0.875243       0.930743       0.995835       0.541937     
  0.998687       0.982749       0.992985       0.999033       0.998224       0.957512       0.884373       0.805899       0.600691       0.897210E-005
  0.997370       0.999454       0.223878E-005  0.172337E-001  0.383283       0.709034       0.881192       0.882640       0.936890       0.996163     
  0.527415       0.998853       0.983413       0.992762       0.999001       0.998455       0.956368       0.877540       0.808309       0.606355     
  0.787648E-005  0.997421       0.999459       0.553639E-006  0.985589E-002  0.289389       0.627721       0.853765       0.851799       0.916761     
  0.995208       0.504195       0.998442       0.979452       0.991086       0.998673       0.997978       0.948950       0.867169       0.772161     
  0.542382       0.971923E-005  0.996818       0.999374       0.336805E-005  0.252361E-001  0.440949       0.740799       0.903221       0.898449     
  0.947351       0.997201       0.566481       0.999154       0.986567       0.994180       0.999167       0.998879       0.958702       0.885047     
  0.824620       0.649779       0.166710E-004  0.997959       0.999586       0.770601E-006  0.348610E-002  0.218708       0.602042       0.832151     
  0.834493       0.909497       0.994374       0.447220       0.997923       0.970586       0.987392       0.998561       0.997632       0.925611     
  0.799126       0.714935       0.449454       0.596445E-005  0.995272       0.998942     
 
  0.114513E-005  0.158353E-001  0.399900       0.733774       0.893061       0.891411       0.942774       0.996171       0.586612       0.998773     
  0.982642       0.992849       0.999226       0.998456       0.952775       0.854808       0.798819       0.595379       0.775473E-005  0.997233     
  0.999370       0.761468E-006  0.121609E-001  0.330309       0.668347       0.870125       0.867639       0.927403       0.995718       0.534130     
  0.998610       0.981240       0.992216       0.998972       0.998193       0.953061       0.871619       0.789541       0.565932       0.897210E-005
  0.997067       0.999398       0.222014E-005  0.123281E-001  0.344051       0.688239       0.875077       0.874368       0.933098       0.996060     
  0.515981       0.998774       0.981820       0.991924       0.998917       0.998409       0.951425       0.864347       0.790987       0.570499     
  0.787648E-005  0.997115       0.999402       0.551712E-006  0.651690E-002  0.250718       0.602167       0.845796       0.841092       0.911689     
  0.995083       0.493234       0.998331       0.977353       0.990032       0.998574       0.997926       0.943065       0.852698       0.752298     
  0.501921       0.971923E-005  0.996412       0.999302       0.336804E-005  0.184933E-001  0.399482       0.720081       0.897550       0.890504     
  0.943729       0.997135       0.554088       0.999090       0.985167       0.993469       0.999094       0.998839       0.953858       0.872495     
  0.807847       0.615015       0.166710E-004  0.997700       0.999540       0.770597E-006  0.189210E-002  0.179492       0.572767       0.822710     
  0.821668       0.903774       0.994243       0.436244       0.997771       0.967698       0.985735       0.998417       0.997572       0.916946     
  0.778823       0.689984       0.400073       0.596445E-005  0.994652       0.998825     
 
  0.113042E-005  0.114213E-001  0.367251       0.721283       0.890129       0.886283       0.941021       0.996079       0.583637       0.998724     
  0.981498       0.992106       0.999182       0.998444       0.949101       0.842648       0.785227       0.560900       0.775473E-005  0.996956     
  0.999315       0.755803E-006  0.852635E-002  0.295011       0.648804       0.864662       0.859664       0.923949       0.995618       0.526781     
  0.998531       0.979648       0.991377       0.998907       0.998163       0.948159       0.858059       0.772387       0.529871       0.897210E-005
  0.996737       0.999339       0.222013E-005  0.857369E-002  0.305716       0.666568       0.868733       0.865659       0.929152       0.995973     
  0.505127       0.998693       0.980126       0.991008       0.998827       0.998366       0.945984       0.850423       0.772878       0.533331     
  0.787648E-005  0.996780       0.999342       0.551712E-006  0.405211E-002  0.212699       0.574744       0.837069       0.829303       0.906163     
  0.994971       0.482208       0.998211       0.975005       0.988819       0.998462       0.997872       0.936299       0.836805       0.730809     
  0.458697       0.971923E-005  0.995945       0.999221       0.336803E-005  0.132149E-001  0.358468       0.698478       0.891673       0.882139     
  0.939963       0.997076       0.542415       0.999022       0.983663       0.992690       0.999016       0.998801       0.948517       0.859306     
  0.790349       0.578641       0.166710E-004  0.997416       0.999491       0.770593E-006  0.986053E-003  0.145855       0.544227       0.813344     
  0.808820       0.898119       0.994132       0.426551       0.997620       0.964779       0.983961       0.998252       0.997518       0.907878     
  0.758611       0.665519       0.353480       0.593262E-005  0.994005       0.998707     
 
  0.113041E-005  0.803175E-002  0.334635       0.708037       0.887061       0.880842       0.939178       0.995999       0.581112       0.998673     
  0.980289       0.991299       0.999133       0.998434       0.945104       0.829957       0.771021       0.525389       0.775473E-005  0.996656     
  0.999258       0.755800E-006  0.579728E-002  0.260817       0.628541       0.858923       0.851260       0.920344       0.995532       0.519549     
  0.998449       0.977965       0.990461       0.998836       0.998133       0.942788       0.843747       0.754482       0.492796       0.897210E-005
  0.996378       0.999276       0.222013E-005  0.577623E-002  0.268704       0.644074       0.862118       0.856491       0.925039       0.995896     
  0.494713       0.998607       0.978325       0.990007       0.998729       0.998323       0.940011       0.835824       0.754064       0.495132     
  0.787648E-005  0.996415       0.999279       0.551710E-006  0.240735E-002  0.177829       0.546914       0.827981       0.816994       0.900445     
  0.994872       0.471733       0.998084       0.972509       0.987498       0.998341       0.997821       0.928891       0.820281       0.708811     
  0.415342       0.971923E-005  0.995437       0.999135       0.336802E-005  0.906169E-002  0.317096       0.675355       0.885397       0.873067     
  0.935939       0.997022       0.531250       0.998949       0.982012       0.991805       0.998929       0.998763       0.942447       0.845018     
  0.771575       0.539582       0.166710E-004  0.997092       0.999437       0.770588E-006  0.472009E-003  0.116017       0.515041       0.803508     
  0.795271       0.892211       0.994028       0.417419       0.997460       0.961676       0.981975       0.998057       0.997465       0.897979     
  0.737479       0.640350       0.307902       0.572042E-005  0.993296       0.998581     
 
  0.113041E-005  0.549736E-002  0.302242       0.693782       0.883781       0.874993       0.937188       0.995929       0.578926       0.998620     
  0.978998       0.990425       0.999080       0.998423       0.940749       0.816759       0.756160       0.489212       0.775473E-005  0.996332     
  0.999197       0.755798E-006  0.380852E-002  0.228079       0.607577       0.852876       0.842409       0.916575       0.995453       0.512372     
  0.998364       0.976184       0.989462       0.998758       0.998103       0.936924       0.828739       0.735900       0.455020       0.897210E-005
  0.995988       0.999209       0.222012E-005  0.375582E-002  0.233433       0.620825       0.855191       0.846844       0.920748       0.995825     
  0.484605       0.998518       0.976417       0.988916       0.998623       0.998281       0.933480       0.820586       0.734619       0.456242     
  0.787648E-005  0.996018       0.999211       0.551709E-006  0.138005E-002  0.147199       0.519568       0.818772       0.804523       0.894696     
  0.994785       0.462005       0.997954       0.969956       0.986105       0.998217       0.997771       0.921052       0.803637       0.687002     
  0.373557       0.953625E-005  0.994899       0.999047       0.336802E-005  0.590636E-002  0.275789       0.650586       0.878672       0.863194     
  0.931629       0.996969       0.520707       0.998868       0.980193       0.990796       0.998832       0.998727       0.935520       0.829491     
  0.751391       0.497791       0.166710E-004  0.996723       0.999376       0.770580E-006  0.187709E-003  0.882832E-001  0.482985       0.792322     
  0.779859       0.885544       0.993920       0.408209       0.997278       0.958106       0.979557       0.997807       0.997409       0.886307     
  0.713679       0.612525       0.260692       0.534003E-005  0.992456       0.998437     
 
  0.113041E-005  0.365675E-002  0.270304       0.678194       0.880194       0.868625       0.934979       0.995864       0.576931       0.998563     
  0.977600       0.989477       0.999020       0.998413       0.935976       0.803107       0.740578       0.452786       0.775473E-005  0.995981     
  0.999133       0.755796E-006  0.240691E-002  0.197135       0.585960       0.846506       0.833102       0.912637       0.995382       0.505289     
  0.998274       0.974306       0.988375       0.998674       0.998073       0.930541       0.813097       0.716732       0.416891       0.897210E-005
  0.995565       0.999139       0.222011E-005  0.234647E-002  0.200271       0.596877       0.847906       0.836698       0.916265       0.995760     
  0.474643       0.998423       0.974405       0.987728       0.998508       0.998239       0.926383       0.804738       0.714601       0.417035     
  0.787648E-005  0.995585       0.999140       0.551709E-006  0.742573E-003  0.119750       0.491824       0.809080       0.791441       0.888697     
  0.994701       0.452523       0.997817       0.967250       0.984585       0.998084       0.997723       0.912513       0.786273       0.664648     
  0.332328       0.890501E-005  0.994312       0.998952       0.336801E-005  0.376143E-002  0.238118       0.626069       0.871969       0.853244     
  0.927346       0.996919       0.511483       0.998785       0.978339       0.989731       0.998732       0.998694       0.928224       0.813909     
  0.731353       0.456807       0.166710E-004  0.996333       0.999315       0.770570E-006  0.625021E-004  0.652300E-001  0.450564       0.780517     
  0.763642       0.878566       0.993814       0.399651       0.997085       0.954246       0.976706       0.997469       0.997352       0.873524     
  0.688903       0.584167       0.216454       0.499715E-005  0.991533       0.998283     
 
  0.113040E-005  0.234934E-002  0.238779       0.660751       0.876144       0.861545       0.932442       0.995804       0.574914       0.998499     
  0.976045       0.988431       0.998948       0.998401       0.930670       0.788901       0.724034       0.416144       0.775473E-005  0.995598     
  0.999065       0.755794E-006  0.145543E-002  0.168276       0.563739       0.839792       0.823329       0.908522       0.995313       0.498307     
  0.998180       0.972325       0.987188       0.998581       0.998043       0.923640       0.796857       0.697039       0.378786       0.884926E-005
  0.995107       0.999064       0.222011E-005  0.140051E-002  0.169529       0.572283       0.840225       0.826034       0.911575       0.995696     
  0.464705       0.998323       0.972283       0.986437       0.998384       0.998196       0.918704       0.788295       0.694053       0.377908     
  0.787648E-005  0.995116       0.999064       0.551708E-006  0.368943E-003  0.956150E-001  0.463806       0.798874       0.777742       0.882439     
  0.994618       0.443215       0.997670       0.964390       0.982926       0.997939       0.997674       0.903233       0.768185       0.641818     
  0.292201       0.840142E-005  0.993672       0.998852       0.336801E-005  0.232485E-002  0.203764       0.601598       0.865190       0.843115     
  0.923033       0.996872       0.503351       0.998701       0.976427       0.988591       0.998623       0.998664       0.920523       0.798127     
  0.711287       0.416584       0.166710E-004  0.995918       0.999251       0.770558E-006  0.268417E-004  0.478569E-001  0.420325       0.768955     
  0.747868       0.871795       0.993715       0.392181       0.996895       0.950347       0.973537       0.997031       0.997297       0.860668     
  0.665083       0.557504       0.178719       0.468345E-005  0.990596       0.998132     
 
  0.113040E-005  0.144741E-002  0.207959       0.641258       0.871542       0.853652       0.929523       0.995745       0.572846       0.998428     
  0.974312       0.987270       0.998860       0.998389       0.924773       0.774061       0.706434       0.379421       0.775473E-005  0.995179     
  0.998992       0.755792E-006  0.835685E-003  0.141725       0.540969       0.832703       0.813075       0.904221       0.995247       0.491349     
  0.998081       0.970230       0.985876       0.998471       0.998013       0.916207       0.780047       0.676871       0.341089       0.861653E-005
  0.994612       0.998986       0.222010E-005  0.792225E-003  0.141454       0.547113       0.832123       0.814843       0.906671       0.995634     
  0.454781       0.998217       0.970047       0.985033       0.998249       0.998153       0.910415       0.771272       0.673024       0.339287     
  0.787633E-005  0.994607       0.998984       0.551705E-006  0.165257E-003  0.748177E-001  0.435645       0.788140       0.763433       0.875919     
  0.994536       0.434099       0.997515       0.961378       0.981120       0.997781       0.997625       0.893183       0.749397       0.618604     
  0.253700       0.793480E-005  0.992976       0.998746       0.336801E-005  0.139361E-002  0.172023       0.576604       0.858144       0.832543     
  0.918574       0.996824       0.496108       0.998611       0.974390       0.987316       0.998489       0.998635       0.912221       0.781725     
  0.690691       0.376491       0.166710E-004  0.995466       0.999183       0.770539E-006  0.223154E-004  0.340858E-001  0.390142       0.756770     
  0.731405       0.864727       0.993616       0.385026       0.996694       0.946087       0.969746       0.996447       0.997237       0.846896     
  0.640537       0.530629       0.144730       0.441960E-005  0.989577       0.997973     
 
  0.113040E-005  0.860267E-003  0.179000       0.620213       0.866459       0.845108       0.926274       0.995689       0.570785       0.998350     
  0.972433       0.985999       0.998752       0.998375       0.918379       0.758944       0.688245       0.343803       0.775473E-005  0.994729     
  0.998916       0.755790E-006  0.450434E-003  0.117657       0.517727       0.825217       0.802340       0.899729       0.995182       0.484368     
  0.997977       0.968012       0.984414       0.998338       0.997982       0.908229       0.762691       0.656291       0.304209       0.839216E-005
  0.994076       0.998904       0.222008E-005  0.421208E-003  0.116219       0.521459       0.823589       0.803125       0.901549       0.995572     
  0.444932       0.998106       0.967690       0.983512       0.998103       0.998109       0.901489       0.753677       0.651565       0.301596     
  0.773261E-005  0.994056       0.998900       0.551702E-006  0.778405E-004  0.572890E-001  0.407484       0.776865       0.748523       0.869136     
  0.994453       0.425230       0.997351       0.958210       0.979157       0.997609       0.997576       0.882348       0.729934       0.595100     
  0.217321       0.749915E-005  0.992220       0.998633       0.336801E-005  0.806297E-003  0.143141       0.551174       0.850812       0.821522     
  0.913964       0.996776       0.489770       0.998517       0.972237       0.985890       0.998331       0.998608       0.903309       0.764696     
  0.669600       0.336983       0.166497E-004  0.994975       0.999112       0.770520E-006  0.223154E-004  0.230137E-001  0.358561       0.743215     
  0.713312       0.856947       0.993509       0.377766       0.996470       0.941133       0.964897       0.995629       0.997168       0.831358     
  0.613919       0.502173       0.113261       0.419699E-005  0.988409       0.997796     
 
  0.113040E-005  0.490941E-003  0.152289       0.597823       0.860894       0.835946       0.922702       0.995633       0.568752       0.998266     
  0.970412       0.984607       0.998619       0.998361       0.911491       0.743607       0.669603       0.309647       0.775473E-005  0.994251     
  0.998837       0.755789E-006  0.227302E-003  0.961772E-001  0.494089       0.817337       0.791125       0.895047       0.995117       0.477535     
  0.997868       0.965662       0.982781       0.998174       0.997950       0.899676       0.744796       0.635349       0.268542       0.806906E-005
  0.993499       0.998817       0.222007E-005  0.231051E-003  0.939278E-001  0.495429       0.814634       0.790888       0.896215       0.995510     
  0.435348       0.997988       0.965206       0.981860       0.997943       0.998065       0.891913       0.735504       0.629722       0.265263     
  0.747514E-005  0.993461       0.998812       0.551701E-006  0.526751E-004  0.428569E-001  0.379470       0.765038       0.733022       0.862087     
  0.994370       0.416646       0.997177       0.954873       0.976982       0.997407       0.997527       0.870719       0.709817       0.571381     
  0.183495       0.712320E-005  0.991401       0.998515       0.336801E-005  0.402831E-003  0.116027       0.524071       0.842729       0.809437     
  0.908942       0.996724       0.483701       0.998412       0.969827       0.984177       0.998124       0.998579       0.893302       0.746142     
  0.646973       0.296567       0.163546E-004  0.994414       0.999032       0.770505E-006  0.223154E-004  0.147499E-001  0.326518       0.728501     
  0.693924       0.848587       0.993398       0.370726       0.996226       0.935359       0.958616       0.994455       0.997085       0.814308     
  0.585796       0.472861       0.857150E-001  0.402510E-005  0.987097       0.997602     
 
  0.113040E-005  0.267519E-003  0.127708       0.573904       0.854742       0.826036       0.918746       0.995578       0.566717       0.998172     
  0.968217       0.983065       0.998454       0.998345       0.904007       0.727855       0.650318       0.276752       0.775473E-005  0.993735     
  0.998754       0.755787E-006  0.130978E-003  0.773336E-001  0.470143       0.809085       0.779441       0.890179       0.995051       0.471122     
  0.997752       0.963157       0.980929       0.997961       0.997917       0.890514       0.726378       0.614101       0.234484       0.771781E-005
  0.992877       0.998725       0.222007E-005  0.141600E-003  0.745873E-001  0.469136       0.805279       0.778143       0.890677       0.995447     
  0.426288       0.997863       0.962594       0.980046       0.997761       0.998022       0.881670       0.716742       0.607534       0.230684     
  0.716683E-005  0.992818       0.998719       0.551701E-006  0.491485E-004  0.309161E-001  0.350795       0.752216       0.716386       0.854515     
  0.994283       0.408096       0.996987       0.951221       0.974464       0.997158       0.997475       0.857846       0.688342       0.546707     
  0.151556       0.680944E-005  0.990483       0.998385       0.336801E-005  0.178664E-003  0.919785E-001  0.496269       0.834042       0.796619     
  0.903635       0.996672       0.477616       0.998298       0.967187       0.982143       0.997840       0.998548       0.882504       0.726633     
  0.623590       0.257217       0.157864E-004  0.993794       0.998947       0.770488E-006  0.223061E-004  0.933134E-002  0.297029       0.713976     
  0.675023       0.840395       0.993293       0.364641       0.995982       0.929154       0.951166       0.992944       0.996992       0.797447     
  0.558828       0.445418       0.642870E-001  0.390947E-005  0.985758       0.997410     
 
  0.113040E-005  0.164237E-003  0.105457       0.548525       0.847949       0.815345       0.914376       0.995522       0.564660       0.998070     
  0.965827       0.981340       0.998246       0.998328       0.895884       0.711699       0.630429       0.245380       0.768947E-005  0.993181     
  0.998666       0.755782E-006  0.898503E-004  0.610887E-001  0.445912       0.800441       0.767266       0.885111       0.994985       0.465272     
  0.997631       0.960480       0.978810       0.997691       0.997884       0.880716       0.707453       0.592579       0.202398       0.736695E-005
  0.992206       0.998629       0.222007E-005  0.107133E-003  0.581241E-001  0.442694       0.795528       0.764900       0.884937       0.995383     
  0.417884       0.997731       0.959838       0.978047       0.997554       0.997979       0.870770       0.697400       0.585057       0.198218     
  0.684184E-005  0.992124       0.998622       0.551701E-006  0.490546E-004  0.215586E-001  0.322190       0.738601       0.698916       0.846546     
  0.994193       0.399836       0.996783       0.947267       0.971545       0.996825       0.997422       0.843948       0.665910       0.521625     
  0.122616       0.657441E-005  0.989475       0.998247       0.336801E-005  0.939147E-004  0.724309E-001  0.469800       0.825354       0.783976     
  0.898415       0.996622       0.471859       0.998185       0.964474       0.979879       0.997475       0.998515       0.871717       0.707513     
  0.601104       0.221986       0.151269E-004  0.993156       0.998861       0.770460E-006  0.221626E-004  0.571952E-002  0.268642       0.698959     
  0.655740       0.831941       0.993188       0.359190       0.995727       0.922055       0.941966       0.990948       0.996881       0.780179     
  0.531993       0.418616       0.472653E-001  0.382716E-005  0.984337       0.997211     
 
  0.113039E-005  0.105248E-003  0.856574E-001  0.521793       0.840460       0.803844       0.909563       0.995465       0.562574       0.997957     
  0.963211       0.979371       0.997973       0.998308       0.887098       0.695143       0.609975       0.215744       0.748828E-005  0.992585     
  0.998574       0.755771E-006  0.755791E-004  0.473040E-001  0.420990       0.791224       0.754404       0.879686       0.994917       0.459896     
  0.997500       0.957467       0.976136       0.997249       0.997847       0.870219       0.688074       0.570695       0.172716       0.702742E-005
  0.991485       0.998528       0.222007E-005  0.957963E-004  0.440782E-001  0.415551       0.785108       0.750813       0.878839       0.995317     
  0.409973       0.997589       0.956829       0.975737       0.997287       0.997936       0.858966       0.677017       0.561801       0.167436     
  0.652501E-005  0.991358       0.998517       0.551701E-006  0.482874E-004  0.147824E-001  0.295213       0.724901       0.681528       0.838586     
  0.994106       0.392341       0.996574       0.943154       0.968241       0.996371       0.997366       0.829843       0.643710       0.497466     
  0.981488E-001  0.642554E-005  0.988423       0.998106       0.336801E-005  0.772060E-004  0.560764E-001  0.443576       0.816310       0.770982     
  0.893063       0.996572       0.466175       0.998065       0.961508       0.977162       0.996978       0.998478       0.860526       0.687952     
  0.578538       0.189459       0.144447E-004  0.992474       0.998772       0.770420E-006  0.206487E-004  0.333832E-002  0.240229       0.682750     
  0.635256       0.822734       0.993078       0.354251       0.995446       0.913411       0.930128       0.988211       0.996741       0.761968     
  0.504667       0.391626       0.337638E-001  0.376517E-005  0.982785       0.996997     
 
  0.113037E-005  0.827589E-004  0.683617E-001  0.493890       0.832233       0.791524       0.904287       0.995408       0.560477       0.997832     
  0.960304       0.977020       0.997584       0.998284       0.877646       0.678195       0.589018       0.188018       0.719110E-005  0.991944     
  0.998478       0.755748E-006  0.741328E-004  0.358209E-001  0.395014       0.781215       0.740643       0.873728       0.994849       0.454860     
  0.997356       0.953898       0.972541       0.996508       0.997799       0.858964       0.668301       0.548370       0.145748       0.671416E-005
  0.990708       0.998421       0.222007E-005  0.926338E-004  0.326713E-001  0.388487       0.774242       0.736205       0.872516       0.995250     
  0.402777       0.997439       0.953607       0.973103       0.996940       0.997892       0.846573       0.656109       0.538403       0.139412     
  0.625031E-005  0.990530       0.998406       0.551701E-006  0.456840E-004  0.987155E-002  0.269237       0.710796       0.663818       0.830440     
  0.994019       0.385437       0.996355       0.938659       0.964248       0.995719       0.997305       0.815289       0.621244       0.473637     
  0.772869E-001  0.634232E-005  0.987301       0.997959       0.336801E-005  0.772060E-004  0.425355E-001  0.417450       0.806831       0.757531     
  0.887533       0.996520       0.460573       0.997939       0.958263       0.973895       0.996331       0.998435       0.848837       0.667796     
  0.555737       0.159584       0.137955E-004  0.991739       0.998678       0.770355E-006  0.175186E-004  0.178865E-002  0.210137       0.664039     
  0.612074       0.811899       0.992948       0.349731       0.995110       0.901925       0.913777       0.984213       0.996546       0.741706     
  0.475571       0.363016       0.229564E-001  0.371700E-005  0.980994       0.996755     
 
  0.113035E-005  0.731245E-004  0.535458E-001  0.465031       0.823230       0.778381       0.898532       0.995349       0.558387       0.997696     
  0.956998       0.974073       0.997008       0.998253       0.867529       0.660863       0.567627       0.162335       0.685581E-005  0.991257     
  0.998376       0.755719E-006  0.741328E-004  0.264870E-001  0.368147       0.770342       0.725949       0.867192       0.994779       0.450138     
  0.997197       0.949581       0.967703       0.995384       0.997737       0.846967       0.648166       0.525669       0.121576       0.644821E-005
  0.989873       0.998307       0.222007E-005  0.888408E-004  0.238410E-001  0.362327       0.763213       0.721484       0.866138       0.995185     
  0.396434       0.997284       0.950164       0.970036       0.996463       0.997845       0.833961       0.635247       0.515513       0.114933     
  0.603335E-005  0.989663       0.998293       0.551701E-006  0.443982E-004  0.638988E-002  0.244128       0.696169       0.645653       0.822030     
  0.993930       0.379135       0.996124       0.933457       0.959022       0.994689       0.997232       0.800190       0.598348       0.449950     
  0.596838E-001  0.630256E-005  0.986096       0.997804       0.336801E-005  0.772060E-004  0.315708E-001  0.391517       0.796925       0.743632     
  0.881830       0.996465       0.455183       0.997806       0.954685       0.970030       0.995523       0.998387       0.836667       0.647117     
  0.532786       0.132562       0.132167E-004  0.990948       0.998579       0.770266E-006  0.133913E-004  0.921420E-003  0.181181       0.644088     
  0.587926       0.800108       0.992807       0.345917       0.994737       0.886925       0.891720       0.978509       0.996279       0.720960     
  0.447146       0.335194       0.152733E-001  0.367839E-005  0.979090       0.996499     
 
  0.113032E-005  0.701569E-004  0.411152E-001  0.435441       0.813412       0.764411       0.892283       0.995288       0.556316       0.997546     
  0.953181       0.970332       0.996186       0.998213       0.856755       0.643162       0.545878       0.138794       0.653119E-005  0.990521     
  0.998269       0.755696E-006  0.741328E-004  0.190966E-001  0.340651       0.758546       0.710321       0.860048       0.994707       0.445655     
  0.997021       0.944043       0.960763       0.993627       0.997651       0.834289       0.627712       0.502691       0.100191       0.624486E-005
  0.988975       0.998185       0.222007E-005  0.888408E-004  0.169869E-001  0.336516       0.751741       0.706303       0.859542       0.995119     
  0.390686       0.997119       0.946276       0.966132       0.995727       0.997791       0.820846       0.613903       0.492567       0.933449E-001
  0.586283E-005  0.988733       0.998174       0.551697E-006  0.420892E-004  0.400673E-002  0.219996       0.681035       0.627065       0.813346     
  0.993836       0.373518       0.995878       0.927221       0.951984       0.993087       0.997138       0.784579       0.575076       0.426447     
  0.451496E-001  0.628307E-005  0.984803       0.997640       0.336801E-005  0.772060E-004  0.226966E-001  0.365161       0.786313       0.728903     
  0.875794       0.996405       0.450032       0.997664       0.950634       0.965390       0.994514       0.998333       0.823683       0.625406     
  0.509141       0.107890       0.127145E-004  0.990074       0.998472       0.770156E-006  0.884101E-005  0.473057E-003  0.154980       0.623832     
  0.564006       0.787932       0.992662       0.342645       0.994340       0.868038       0.863456       0.970788       0.995927       0.700706     
  0.420564       0.309364       0.101121E-001  0.364127E-005  0.977152       0.996238     
 
  0.113030E-005  0.698022E-004  0.309083E-001  0.405342       0.802736       0.749605       0.885521       0.995227       0.554266       0.997382     
  0.948682       0.965509       0.995040       0.998159       0.845349       0.625107       0.523841       0.117454       0.625092E-005  0.989732     
  0.998157       0.755666E-006  0.741328E-004  0.134067E-001  0.312804       0.745780       0.693768       0.852267       0.994632       0.441344     
  0.996824       0.936693       0.950754       0.990951       0.997528       0.820983       0.606982       0.479532       0.815333E-001  0.610973E-005
  0.988012       0.998053       0.222006E-005  0.888408E-004  0.118034E-001  0.311123       0.739797       0.690654       0.852703       0.995049     
  0.385509       0.996945       0.941796       0.961145       0.994655       0.997726       0.807229       0.592097       0.469585       0.746284E-001
  0.572474E-005  0.987737       0.998048       0.551683E-006  0.388238E-004  0.243259E-002  0.196844       0.665343       0.608021       0.804314     
  0.993735       0.368572       0.995616       0.919584       0.942458       0.990713       0.997015       0.768466       0.551507       0.403141     
  0.334325E-001  0.626943E-005  0.983416       0.997466       0.336801E-005  0.771190E-004  0.157324E-001  0.338284       0.774874       0.713217     
  0.869337       0.996340       0.445254       0.997509       0.946030       0.959868       0.993300       0.998268       0.809786       0.602611     
  0.484751       0.857861E-001  0.123056E-004  0.989105       0.998356       0.770010E-006  0.467637E-005  0.236182E-003  0.130404       0.602280     
  0.539164       0.774760       0.992504       0.339610       0.993894       0.843586       0.826967       0.960349       0.995451       0.679905     
  0.394348       0.284131       0.651154E-002  0.360031E-005  0.975076       0.995956     
 
  0.113028E-005  0.698022E-004  0.227184E-001  0.374959       0.791157       0.733959       0.878220       0.995163       0.552236       0.997202     
  0.943206       0.959118       0.993417       0.998087       0.833341       0.606720       0.501587       0.983344E-001  0.603352E-005  0.988888     
  0.998037       0.755640E-006  0.737853E-004  0.915422E-002  0.284874       0.732013       0.676307       0.843808       0.994551       0.437231     
  0.996603       0.926815       0.936692       0.987098       0.997354       0.807058       0.585986       0.456257       0.654807E-001  0.603146E-005
  0.986979       0.997911       0.222003E-005  0.888408E-004  0.798574E-002  0.286030       0.727266       0.674440       0.845522       0.994973     
  0.380861       0.996759       0.936576       0.954877       0.993195       0.997646       0.793102       0.569935       0.446584       0.587205E-001
  0.561548E-005  0.986670       0.997915       0.551659E-006  0.321584E-004  0.142867E-002  0.174439       0.648830       0.588301       0.794708     
  0.993626       0.364118       0.995329       0.909531       0.928819       0.987121       0.996841       0.751821       0.527764       0.379959     
  0.242423E-001  0.625402E-005  0.981932       0.997280       0.336801E-005  0.765133E-004  0.107418E-001  0.312428       0.763204       0.697458     
  0.862771       0.996275       0.441271       0.997349       0.941147       0.953890       0.991971       0.998201       0.795859       0.580317     
  0.461189       0.676153E-001  0.120115E-004  0.988099       0.998239       0.769822E-006  0.244897E-005  0.116546E-003  0.107733       0.579428     
  0.513442       0.760492       0.992324       0.336789       0.993389       0.811012       0.779032       0.945836       0.994784       0.658581     
  0.368557       0.259569       0.406947E-002  0.355615E-005  0.972850       0.995646     
 
  0.113027E-005  0.698022E-004  0.163056E-001  0.344507       0.778637       0.717471       0.870344       0.995096       0.550225       0.997004     
  0.936346       0.950562       0.991143       0.997987       0.820748       0.588027       0.479183       0.814096E-001  0.587938E-005  0.987986     
  0.997910       0.755593E-006  0.737448E-004  0.607317E-002  0.257103       0.717211       0.657948       0.834610       0.994461       0.433351     
  0.996354       0.913114       0.916573       0.981465       0.997104       0.792518       0.564700       0.432895       0.518715E-001  0.600206E-005
  0.985873       0.997755       0.221998E-005  0.873567E-004  0.525090E-002  0.261062       0.713959       0.657506       0.837847       0.994892     
  0.376657       0.996556       0.930460       0.947128       0.991307       0.997549       0.778449       0.547555       0.423570       0.454830E-001
  0.553171E-005  0.985529       0.997775       0.551631E-006  0.235797E-004  0.812310E-003  0.152655       0.631200       0.567683       0.784270     
  0.993510       0.359956       0.995010       0.895738       0.909278       0.981748       0.996594       0.734612       0.503973       0.356842     
  0.172265E-001  0.623439E-005  0.980343       0.997078       0.336800E-005  0.765133E-004  0.720515E-002  0.287344       0.751154       0.681470     
  0.855986       0.996208       0.438024       0.997183       0.935892       0.947377       0.990495       0.998128       0.781832       0.558442     
  0.438283       0.527786E-001  0.117992E-004  0.987049       0.998120       0.769548E-006  0.152014E-005  0.560054E-004  0.860227E-001  0.553760     
  0.485265       0.744019       0.992097       0.334046       0.992764       0.763912       0.711665       0.923936       0.993750       0.635455     
  0.341801       0.234377       0.238852E-002  0.350982E-005  0.970317       0.995279     
 
  0.113024E-005  0.698022E-004  0.114132E-001  0.314187       0.765133       0.700132       0.861843       0.995022       0.548230       0.996784     
  0.927471       0.938864       0.987922       0.997847       0.807584       0.569059       0.456694       0.666135E-001  0.578288E-005  0.987022     
  0.997774       0.755511E-006  0.697563E-004  0.391125E-002  0.229781       0.701353       0.638716       0.824633       0.994358       0.429723     
  0.996069       0.894439       0.888843       0.973554       0.996753       0.777374       0.543124       0.409498       0.405070E-001  0.599961E-005
  0.984689       0.997582       0.221993E-005  0.809057E-004  0.335225E-002  0.236269       0.699759       0.639776       0.829589       0.994807     
  0.372840       0.996334       0.923228       0.937653       0.988937       0.997432       0.763271       0.525060       0.400593       0.346779E-001
  0.546796E-005  0.984309       0.997628       0.551579E-006  0.146079E-004  0.449070E-003  0.131730       0.612394       0.546166       0.772920     
  0.993383       0.356031       0.994651       0.877265       0.882627       0.974174       0.996251       0.716859       0.480209       0.333857     
  0.119911E-001  0.620793E-005  0.978645       0.996860       0.336794E-005  0.758630E-004  0.470036E-002  0.262501       0.738384       0.664852     
  0.848776       0.996137       0.435323       0.997004       0.929732       0.939308       0.988533       0.998036       0.767391       0.536518     
  0.415512       0.405612E-001  0.116326E-004  0.985929       0.997995       0.769164E-006  0.118276E-005  0.284038E-004  0.670551E-001  0.526820     
  0.456440       0.726215       0.991827       0.331539       0.992036       0.703708       0.629569       0.894812       0.992313       0.611994     
  0.315897       0.210306       0.135457E-002  0.346906E-005  0.967612       0.994867     
 
  0.113018E-005  0.691145E-004  0.778281E-002  0.284208       0.750602       0.681942       0.852663       0.994940       0.546246       0.996540     
  0.915786       0.922801       0.983378       0.997650       0.793868       0.549850       0.434187       0.538457E-001  0.573563E-005  0.985993     
  0.997627       0.755400E-006  0.610045E-004  0.244313E-002  0.203254       0.684428       0.618650       0.813891       0.994243       0.426309     
  0.995748       0.870250       0.853352       0.963210       0.996293       0.761653       0.521316       0.386162       0.311627E-001  0.599961E-005
  0.983425       0.997392       0.221986E-005  0.686148E-004  0.207882E-002  0.211890       0.684631       0.621269       0.820718       0.994717     
  0.369374       0.996092       0.914588       0.926047       0.985936       0.997290       0.747593       0.502528       0.377739       0.260126E-001
  0.541704E-005  0.983008       0.997472       0.551478E-006  0.850307E-005  0.242212E-003  0.111758       0.592244       0.523591       0.760447     
  0.993236       0.352343       0.994236       0.850176       0.843206       0.962425       0.995722       0.698424       0.456307       0.310883     
  0.813944E-002  0.617558E-005  0.976816       0.996616       0.336783E-005  0.699242E-004  0.298775E-002  0.237887       0.724759       0.647521     
  0.841008       0.996059       0.432980       0.996806       0.921600       0.927712       0.985420       0.997895       0.752561       0.514642     
  0.392917       0.306930E-001  0.114880E-004  0.984736       0.997862       0.768689E-006  0.103461E-005  0.161324E-004  0.518267E-001  0.500457     
  0.428907       0.708302       0.991527       0.329255       0.991247       0.637557       0.544374       0.861248       0.990557       0.589725     
  0.292342       0.188760       0.767455E-003  0.343792E-005  0.964902       0.994439     
 
  0.113010E-005  0.658611E-004  0.516468E-002  0.254828       0.735015       0.662911       0.842782       0.994850       0.544265       0.996268     
  0.900426       0.901248       0.977185       0.997380       0.779618       0.530438       0.411731       0.429732E-001  0.572243E-005  0.984897     
  0.997468       0.755243E-006  0.487787E-004  0.147977E-002  0.177841       0.666426       0.597796       0.802369       0.994115       0.422998     
  0.995385       0.840221       0.810463       0.950265       0.995705       0.745388       0.499371       0.363000       0.236035E-001  0.599961E-005
  0.982075       0.997183       0.221976E-005  0.519322E-004  0.125436E-002  0.188184       0.668570       0.602019       0.811211       0.994622     
  0.366203       0.995828       0.904106       0.911661       0.982075       0.997112       0.731452       0.480041       0.355110       0.191857E-001
  0.537288E-005  0.981622       0.997307       0.551334E-006  0.517841E-005  0.128082E-003  0.928011E-001  0.570446       0.499690       0.746516     
  0.993054       0.348909       0.993736       0.809189       0.784438       0.943933       0.994877       0.679086       0.432027       0.287730     
  0.535022E-002  0.614140E-005  0.974821       0.996332       0.336767E-005  0.575472E-004  0.184410E-002  0.213629       0.710175       0.629434     
  0.832589       0.995973       0.430833       0.996584       0.910325       0.910889       0.980588       0.997682       0.737369       0.492898     
  0.370553       0.228688E-001  0.113475E-004  0.983466       0.997719       0.768101E-006  0.998339E-006  0.977072E-005  0.391285E-001  0.473310     
  0.401200       0.689338       0.991178       0.326956       0.990349       0.565267       0.456698       0.822220       0.988369       0.567360     
  0.269639       0.168374       0.419345E-003  0.341450E-005  0.962026       0.993971     
 
  0.112999E-005  0.589854E-004  0.333146E-002  0.226334       0.718353       0.643064       0.832179       0.994751       0.542277       0.995963     
  0.880299       0.872999       0.968911       0.997018       0.764853       0.510867       0.389402       0.338413E-001  0.572243E-005  0.983728     
  0.997295       0.755012E-006  0.333097E-004  0.869879E-003  0.153801       0.647356       0.576201       0.790049       0.993970       0.419696     
  0.994975       0.804082       0.760542       0.934449       0.994966       0.728615       0.477368       0.340113       0.175891E-001  0.599961E-005
  0.980637       0.996953       0.221963E-005  0.361922E-004  0.738886E-003  0.165409       0.651583       0.582072       0.801050       0.994518     
  0.363296       0.995539       0.891363       0.893948       0.977138       0.996888       0.714889       0.457672       0.332796       0.139043E-001
  0.533171E-005  0.980148       0.997133       0.551130E-006  0.349400E-005  0.683839E-004  0.758217E-001  0.547791       0.475382       0.731605     
  0.992836       0.345829       0.993155       0.754681       0.709385       0.918729       0.993682       0.659548       0.408272       0.265307     
  0.345009E-002  0.611218E-005  0.972723       0.996011       0.336741E-005  0.414685E-004  0.109989E-002  0.190000       0.694612       0.610618     
  0.823513       0.995878       0.428847       0.996335       0.895313       0.888343       0.973884       0.997388       0.721844       0.471342     
  0.348495       0.167718E-001  0.111987E-004  0.982117       0.997565       0.767355E-006  0.977905E-006  0.607443E-005  0.288146E-001  0.445546     
  0.373500       0.669346       0.990768       0.324629       0.989324       0.488787       0.369741       0.777497       0.985658       0.544976     
  0.247854       0.149222       0.220272E-003  0.339917E-005  0.958981       0.993456     
 
  0.112981E-005  0.478477E-004  0.208758E-002  0.198992       0.700610       0.622433       0.820812       0.994639       0.540261       0.995620     
  0.854152       0.836722       0.957949       0.996530       0.749589       0.491187       0.367273       0.262803E-001  0.572243E-005  0.982484     
  0.997104       0.754738E-006  0.212176E-004  0.498572E-003  0.131355       0.627261       0.553922       0.776897       0.993804       0.416397     
  0.994513       0.761721       0.704200       0.915530       0.994051       0.711368       0.455377       0.317582       0.128869E-001  0.599961E-005
  0.979106       0.996702       0.221947E-005  0.243217E-004  0.426936E-003  0.143802       0.633684       0.561487       0.790225       0.994406     
  0.360625       0.995224       0.875717       0.872075       0.970813       0.996603       0.697950       0.435488       0.310884       0.989503E-002
  0.529175E-005  0.978584       0.996948       0.550835E-006  0.259004E-005  0.373825E-004  0.610812E-001  0.524640       0.451069       0.715923     
  0.992572       0.342931       0.992483       0.687493       0.621100       0.886391       0.992065       0.640106       0.385326       0.243909     
  0.219168E-002  0.609296E-005  0.970544       0.995654       0.336707E-005  0.264064E-004  0.634238E-003  0.167239       0.678048       0.591087     
  0.813749       0.995773       0.427024       0.996058       0.876562       0.860473       0.965346       0.997013       0.706009       0.449993     
  0.326788       0.120981E-001  0.110368E-004  0.980684       0.997400       0.766398E-006  0.973365E-006  0.416326E-005  0.206606E-001  0.417345     
  0.345988       0.648283       0.990276       0.322267       0.988140       0.409574       0.286083       0.726246       0.982264       0.522656     
  0.227046       0.131359       0.110752E-003  0.339149E-005  0.955763       0.992887     
 
  0.112954E-005  0.343953E-004  0.127279E-002  0.173043       0.681788       0.601053       0.808631       0.994509       0.538199       0.995230     
  0.820931       0.791536       0.943710       0.995880       0.733849       0.471444       0.345413       0.201125E-001  0.572243E-005  0.981161     
  0.996893       0.754404E-006  0.129895E-004  0.279846E-003  0.110681       0.606170       0.531017       0.762868       0.993610       0.413113     
  0.993988       0.712364       0.641171       0.892824       0.992908       0.693698       0.433485       0.295499       0.927614E-002  0.599961E-005
  0.977479       0.996425       0.221927E-005  0.163332E-004  0.243275E-003  0.123570       0.614892       0.540321       0.778720       0.994283     
  0.358116       0.994876       0.855972       0.844520       0.962528       0.996230       0.680696       0.413564       0.289453       0.691015E-002
  0.525303E-005  0.976925       0.996750       0.550407E-006  0.225026E-005  0.209692E-004  0.482636E-001  0.500618       0.426371       0.699138     
  0.992242       0.340012       0.991686       0.608353       0.522497       0.845979       0.989900       0.620418       0.362739       0.223149     
  0.135734E-002  0.608568E-005  0.968235       0.995246       0.336661E-005  0.160328E-004  0.348341E-003  0.144903       0.659891       0.570218     
  0.802931       0.995654       0.425331       0.995740       0.853197       0.826626       0.954662       0.996535       0.689384       0.428243     
  0.304825       0.848321E-002  0.108589E-004  0.979114       0.997218       0.765175E-006  0.973360E-006  0.385081E-005  0.143982E-001  0.388891     
  0.318824       0.626138       0.989677       0.319858       0.986762       0.330398       0.209441       0.668204       0.978009       0.500463     
  0.207251       0.114821       0.543236E-004  0.339020E-005  0.952364       0.992253     
 
  0.112916E-005  0.229800E-004  0.757730E-003  0.148708       0.661899       0.578972       0.795578       0.994355       0.536079       0.994785     
  0.779587       0.736864       0.925547       0.995021       0.717662       0.451682       0.323883       0.151586E-001  0.572243E-005  0.979755     
  0.996658       0.753989E-006  0.842122E-005  0.154496E-003  0.919247E-001  0.584132       0.507560       0.747960       0.993382       0.409844     
  0.993392       0.656128       0.572406       0.865959       0.991490       0.675650       0.411770       0.273947       0.655576E-002  0.599961E-005
  0.975752       0.996120       0.221899E-005  0.117644E-004  0.138005E-003  0.104881       0.595241       0.518643       0.766517       0.994147     
  0.355713       0.994491       0.831136       0.810172       0.951749       0.995741       0.663180       0.391967       0.268578       0.473177E-002
  0.521639E-005  0.975169       0.996536       0.549826E-006  0.197383E-005  0.121484E-004  0.373619E-001  0.475852       0.401432       0.681257     
  0.991833       0.337062       0.990746       0.521563       0.420744       0.797953       0.987099       0.600530       0.340578       0.203121     
  0.818328E-003  0.608568E-005  0.965793       0.994784       0.336602E-005  0.797398E-005  0.188717E-003  0.124073       0.640772       0.548802     
  0.791411       0.995520       0.423838       0.995385       0.825635       0.787776       0.941941       0.995950       0.672598       0.406939     
  0.283492       0.585043E-002  0.106792E-004  0.977457       0.997023       0.763558E-006  0.966124E-006  0.385081E-005  0.957822E-002  0.359251     
  0.291132       0.602060       0.988917       0.317289       0.985090       0.253322       0.141895       0.602009       0.972540       0.477601     
  0.187795       0.990563E-001  0.320850E-004  0.339020E-005  0.948636       0.991520     
 
  0.112868E-005  0.149532E-004  0.440912E-003  0.126183       0.640961       0.556234       0.781610       0.994170       0.533887       0.994271     
  0.728968       0.672190       0.902620       0.993891       0.701060       0.431947       0.302741       0.112435E-001  0.572243E-005  0.978262     
  0.996395       0.753487E-006  0.555127E-005  0.847268E-004  0.751794E-001  0.561220       0.483639       0.732185       0.993116       0.406581     
  0.992716       0.594156       0.500105       0.834898       0.989757       0.657258       0.390292       0.252988       0.454480E-002  0.599961E-005
  0.973922       0.995784       0.221861E-005  0.869533E-005  0.788166E-004  0.878646E-001  0.574777       0.496528       0.753610       0.993995     
  0.353406       0.994063       0.800417       0.768293       0.938032       0.995107       0.645446       0.370753       0.248323       0.317454E-002
  0.518296E-005  0.973312       0.996306       0.549057E-006  0.191761E-005  0.745830E-005  0.282982E-001  0.450462       0.376387       0.662282     
  0.991321       0.334063       0.989632       0.431400       0.322020       0.742369       0.983526       0.580502       0.318899       0.183900     
  0.479288E-003  0.608568E-005  0.963213       0.994260       0.336529E-005  0.453653E-005  0.100567E-003  0.105541       0.621429       0.527660     
  0.779598       0.995373       0.422508       0.995001       0.793946       0.744072       0.926982       0.995239       0.656270       0.386790     
  0.263519       0.402275E-002  0.105118E-004  0.975772       0.996821       0.761500E-006  0.948796E-006  0.385081E-005  0.616486E-002  0.329891     
  0.264285       0.576989       0.987979       0.314610       0.983125       0.184746       0.888355E-001  0.530939       0.965773       0.455121     
  0.169585       0.848101E-001  0.313708E-004  0.339020E-005  0.944720       0.990703     
 
  0.112805E-005  0.986150E-005  0.250770E-003  0.105633       0.619020       0.532900       0.766721       0.993944       0.531621       0.993676     
  0.669047       0.598602       0.874400       0.992428       0.684071       0.412285       0.282043       0.820160E-002  0.572243E-005  0.976678     
  0.996099       0.752896E-006  0.434750E-005  0.469980E-004  0.604654E-001  0.537506       0.459344       0.715479       0.992799       0.403302     
  0.991937       0.526581       0.425076       0.798757       0.987603       0.638597       0.369127       0.232694       0.308780E-002  0.599961E-005
  0.971985       0.995412       0.221808E-005  0.676786E-005  0.457705E-004  0.726013E-001  0.553556       0.474053       0.739968       0.993822     
  0.351189       0.993582       0.761984       0.716952       0.920368       0.994266       0.627541       0.349974       0.228745       0.208472E-002
  0.515399E-005  0.971351       0.996053       0.548057E-006  0.191761E-005  0.575097E-005  0.209417E-001  0.424592       0.351378       0.642197     
  0.990680       0.331001       0.988309       0.342412       0.232323       0.679602       0.979026       0.560388       0.297752       0.165564     
  0.273231E-003  0.608568E-005  0.960493       0.993668       0.336434E-005  0.319067E-005  0.554733E-004  0.886908E-001  0.601283       0.506150     
  0.767117       0.995204       0.421210       0.994570       0.755688       0.693126       0.908725       0.994350       0.639866       0.367074     
  0.244206       0.273274E-002  0.103566E-004  0.973999       0.996603       0.759038E-006  0.842723E-006  0.385081E-005  0.391785E-002  0.302270     
  0.239526       0.552128       0.986880       0.311913       0.980927       0.129921       0.522377E-001  0.460336       0.957908       0.433994     
  0.153292       0.725521E-001  0.312795E-004  0.339001E-005  0.940788       0.989832     
 
  0.112727E-005  0.658235E-005  0.140348E-003  0.871501E-001  0.596126       0.509036       0.750895       0.993667       0.529280       0.992985     
  0.601009       0.518639       0.840600       0.990566       0.666723       0.392739       0.261838       0.587862E-002  0.572243E-005  0.974997     
  0.995767       0.752167E-006  0.330964E-005  0.265402E-004  0.477738E-001  0.513071       0.434771       0.697866       0.992415       0.399984     
  0.991037       0.454912       0.349291       0.757095       0.984938       0.619731       0.348344       0.213136       0.205393E-002  0.599961E-005
  0.969936       0.994996       0.221732E-005  0.559719E-005  0.276081E-004  0.591210E-001  0.531638       0.451303       0.725555       0.993619     
  0.349050       0.993033       0.714202       0.654833       0.897635       0.993139       0.609516       0.329675       0.209899       0.133843E-002
  0.513056E-005  0.969283       0.995773       0.546778E-006  0.191761E-005  0.528228E-005  0.151227E-001  0.398414       0.326556       0.621020     
  0.989881       0.327867       0.986741       0.259979       0.156893       0.610929       0.973446       0.540236       0.277199       0.148188     
  0.158476E-003  0.608568E-005  0.957629       0.993000       0.336315E-005  0.286543E-005  0.422641E-004  0.735850E-001  0.580408       0.484364     
  0.753969       0.995013       0.419929       0.994086       0.711259       0.635903       0.886985       0.993249       0.623425       0.347832     
  0.225607       0.183646E-002  0.102184E-004  0.972140       0.996366       0.756040E-006  0.842723E-006  0.385081E-005  0.241807E-002  0.275382     
  0.215871       0.526616       0.985561       0.309100       0.978390       0.872131E-001  0.282383E-001  0.390117       0.948601       0.413302     
  0.138113       0.616138E-001  0.305890E-004  0.338720E-005  0.936679       0.988873     
 
  0.112628E-005  0.481316E-005  0.782492E-004  0.707655E-001  0.572322       0.484709       0.734071       0.993325       0.526839       0.992175     
  0.525917       0.434461       0.800502       0.988192       0.649066       0.373355       0.242177       0.413676E-002  0.572243E-005  0.973217     
  0.995391       0.751264E-006  0.288555E-005  0.154821E-004  0.370345E-001  0.488026       0.410037       0.679363       0.991955       0.396615     
  0.990001       0.382542       0.276825       0.710434       0.981701       0.600702       0.327992       0.194365       0.133592E-002  0.599961E-005
  0.967770       0.994535       0.221626E-005  0.469580E-005  0.221064E-004  0.474121E-001  0.509106       0.428370       0.710345       0.993378     
  0.346981       0.992403       0.657586       0.583387       0.869384       0.991662       0.591413       0.309900       0.191835       0.840409E-003
  0.511344E-005  0.967105       0.995463       0.545135E-006  0.191761E-005  0.460204E-005  0.106433E-001  0.372089       0.302056       0.598770     
  0.988876       0.324648       0.984870       0.188014       0.980493E-001  0.537591       0.966548       0.520090       0.257288       0.131828     
  0.105340E-003  0.608568E-005  0.954616       0.992242       0.336164E-005  0.276257E-005  0.360425E-004  0.602550E-001  0.558887       0.462397     
  0.740154       0.994792       0.418643       0.993541       0.660557       0.572920       0.861378       0.991889       0.606977       0.329102     
  0.207772       0.121177E-002  0.101007E-004  0.970193       0.996110       0.752338E-006  0.842723E-006  0.385081E-005  0.145138E-002  0.249409     
  0.193427       0.500493       0.983952       0.306164       0.975430       0.554656E-001  0.137657E-001  0.321471       0.937503       0.393099     
  0.124041       0.519426E-001  0.294348E-004  0.337621E-005  0.932391       0.987806     
 
  0.112500E-005  0.343799E-005  0.439580E-004  0.564820E-001  0.547670       0.459997       0.716234       0.992896       0.524253       0.991220     
  0.446188       0.349437       0.753772       0.985196       0.631145       0.354181       0.223113       0.285525E-002  0.572243E-005  0.971331     
  0.994964       0.750149E-006  0.283171E-005  0.100209E-004  0.281279E-001  0.462485       0.385257       0.659942       0.991400       0.393189     
  0.988803       0.311864       0.210382       0.658792       0.977783       0.581562       0.308114       0.176430       0.848323E-003  0.599961E-005
  0.965484       0.994023       0.221487E-005  0.423772E-005  0.170637E-004  0.374200E-001  0.486057       0.405356       0.694375       0.993093     
  0.344970       0.991683       0.593701       0.505770       0.835679       0.989793       0.573277       0.290689       0.174600       0.524216E-003
  0.510244E-005  0.964814       0.995121       0.543009E-006  0.190122E-005  0.456668E-005  0.729313E-002  0.345770       0.278004       0.575396     
  0.987595       0.321336       0.982617       0.128290       0.556278E-001  0.460734       0.958010       0.499990       0.238051       0.116528     
  0.804259E-004  0.608568E-005  0.951450       0.991377       0.335967E-005  0.272315E-005  0.360425E-004  0.486839E-001  0.536806       0.440341     
  0.725659       0.994531       0.417339       0.992921       0.602964       0.504152       0.830975       0.990188       0.590558       0.310922     
  0.190742       0.781805E-003  0.100053E-004  0.968158       0.995830       0.747761E-006  0.842723E-006  0.385081E-005  0.849902E-003  0.224531     
  0.172293       0.473839       0.981979       0.303095       0.971959       0.333010E-001  0.594227E-002  0.256260       0.924300       0.373436     
  0.111057       0.434713E-001  0.286229E-004  0.335315E-005  0.927926       0.986616     
 
  0.112336E-005  0.284322E-005  0.254405E-004  0.442496E-001  0.522254       0.434998       0.697371       0.992362       0.521497       0.990097     
  0.365969       0.268626       0.700850       0.981471       0.612995       0.335257       0.204692       0.193083E-002  0.572243E-005  0.969335     
  0.994482       0.748791E-006  0.283006E-005  0.944719E-005  0.209017E-001  0.436577       0.360546       0.639549       0.990732       0.389693     
  0.987409       0.245007       0.151939       0.601795       0.973022       0.562360       0.288756       0.159380       0.527087E-003  0.599961E-005
  0.963074       0.993450       0.221311E-005  0.413117E-005  0.144263E-004  0.290371E-001  0.462596       0.382367       0.677687       0.992758     
  0.342995       0.990863       0.524613       0.425613       0.796737       0.987486       0.555155       0.272081       0.158232       0.335371E-003
  0.509638E-005  0.962409       0.994746       0.540296E-006  0.187887E-005  0.451839E-005  0.486284E-002  0.319638       0.254538       0.550935     
  0.985975       0.317923       0.979912       0.823762E-001  0.282851E-001  0.383193       0.947583       0.479986       0.219538       0.102329     
  0.615093E-004  0.608568E-005  0.948127       0.990392       0.335714E-005  0.272315E-005  0.360425E-004  0.388060E-001  0.514270       0.418297     
  0.710500       0.994223       0.416016       0.992212       0.539408       0.431570       0.795481       0.988076       0.574204       0.293326     
  0.174555       0.491513E-003  0.993129E-005  0.966036       0.995521       0.742230E-006  0.842723E-006  0.379275E-005  0.488983E-003  0.200932     
  0.152565       0.446857       0.979597       0.299890       0.967927       0.189477E-001  0.225005E-002  0.197152       0.908864       0.354354     
  0.991377E-001  0.361214E-001  0.279740E-004  0.331319E-005  0.923289       0.985298     
 
  0.112126E-005  0.242188E-005  0.168450E-004  0.339703E-001  0.496169       0.409806       0.677401       0.991691       0.518546       0.988763     
  0.288285       0.195430       0.641499       0.976836       0.594654       0.316623       0.186964       0.127799E-002  0.572243E-005  0.967222     
  0.993934       0.747143E-006  0.283006E-005  0.763051E-005  0.151832E-001  0.410450       0.336032       0.618324       0.989934       0.386124     
  0.985800       0.185976       0.104208       0.541836       0.967361       0.543133       0.269960       0.143252       0.330868E-003  0.599961E-005
  0.960534       0.992817       0.221093E-005  0.408542E-005  0.135224E-004  0.221296E-001  0.438839       0.359509       0.660294       0.992364     
  0.341036       0.989930       0.453036       0.346822       0.752991       0.984686       0.537085       0.254105       0.142764       0.216698E-003
  0.509379E-005  0.959886       0.994335       0.536896E-006  0.187887E-005  0.451839E-005  0.315334E-002  0.293897       0.231813       0.525491     
  0.983953       0.314388       0.976687       0.498344E-001  0.127663E-001  0.308483       0.935048       0.460142       0.201815       0.892691E-001
  0.476220E-004  0.608568E-005  0.944644       0.989276       0.335401E-005  0.272315E-005  0.360425E-004  0.305273E-001  0.491411       0.396381     
  0.694732       0.993862       0.414657       0.991407       0.472384       0.358823       0.755420       0.985516       0.557955       0.276340     
  0.159239       0.302045E-003  0.987617E-005  0.963827       0.995184       0.735612E-006  0.830437E-006  0.364399E-005  0.279852E-003  0.178717     
  0.134303       0.419711       0.976743       0.296525       0.963263       0.102818E-001  0.742131E-003  0.145976       0.891036       0.335874     
  0.882506E-001  0.298042E-001  0.263139E-004  0.325710E-005  0.918484       0.983841     
 
  0.111855E-005  0.224805E-005  0.160959E-004  0.255079E-001  0.469512       0.384515       0.656193       0.990839       0.515351       0.987158     
  0.216285       0.132639       0.575462       0.971025       0.576160       0.298319       0.169977       0.829443E-003  0.572243E-005  0.964988     
  0.993304       0.745143E-006  0.283006E-005  0.731282E-005  0.107719E-001  0.384248       0.311838       0.596286       0.988974       0.382472     
  0.983938       0.135840       0.673236E-001  0.479831       0.960662       0.523915       0.251757       0.128082       0.221339E-003  0.599961E-005
  0.957861       0.992115       0.220825E-005  0.405312E-005  0.129128E-004  0.165567E-001  0.414906       0.336889       0.642221       0.991901     
  0.339080       0.988872       0.381607       0.272818       0.704849       0.981329       0.519102       0.236794       0.128224       0.139009E-003
  0.509311E-005  0.957244       0.993886       0.532666E-006  0.187887E-005  0.451839E-005  0.199094E-002  0.268756       0.209980       0.499222     
  0.981440       0.310708       0.972855       0.284054E-001  0.504330E-002  0.239488       0.920136       0.440541       0.184947       0.773792E-001
  0.405932E-004  0.608568E-005  0.940998       0.988015       0.335022E-005  0.272315E-005  0.360425E-004  0.237095E-001  0.468388       0.374732     
  0.678432       0.993444       0.413234       0.990496       0.404730       0.289428       0.711481       0.982473       0.541838       0.259982     
  0.144825       0.182153E-003  0.983747E-005  0.961535       0.994818       0.727710E-006  0.784965E-006  0.346850E-005  0.162413E-003  0.157951     
  0.117529       0.392529       0.973325       0.292963       0.957878       0.539391E-002  0.211630E-003  0.103643       0.870600       0.318013     
  0.783565E-001  0.244262E-001  0.228023E-004  0.318793E-005  0.913518       0.982233     
 
  0.111509E-005  0.224805E-005  0.121651E-004  0.187096E-001  0.442406       0.359233       0.633839       0.989765       0.511874       0.985237     
  0.154325       0.833985E-001  0.505282       0.963876       0.557540       0.280386       0.153774       0.534550E-003  0.572243E-005  0.962624     
  0.992585       0.742694E-006  0.283006E-005  0.729061E-005  0.746009E-002  0.358119       0.288083       0.573412       0.987810       0.378715     
  0.981770       0.948543E-001  0.404351E-001  0.416335       0.952698       0.504760       0.234171       0.113894       0.150890E-003  0.599961E-005
  0.955049       0.991332       0.220494E-005  0.405312E-005  0.129128E-004  0.121600E-001  0.390919       0.314605       0.623496       0.991353     
  0.337121       0.987667       0.312488       0.206018       0.652513       0.977316       0.501239       0.220173       0.114628       0.940647E-004
  0.509234E-005  0.954481       0.993394       0.527465E-006  0.187887E-005  0.451839E-005  0.122906E-002  0.244415       0.189169       0.472350     
  0.978346       0.306877       0.968334       0.153018E-001  0.171786E-002  0.178626       0.902654       0.421257       0.168978       0.666585E-001
  0.388080E-004  0.608020E-005  0.937185       0.986598       0.334568E-005  0.272315E-005  0.360425E-004  0.181870E-001  0.445380       0.353487     
  0.661687       0.992961       0.411739       0.989473       0.339144       0.226116       0.664361       0.978905       0.525880       0.244278     
  0.131335       0.112714E-003  0.981099E-005  0.959161       0.994423       0.718405E-006  0.699134E-006  0.321615E-005  0.979497E-004  0.138714     
  0.102258       0.365527       0.969280       0.289195       0.951706       0.277317E-002  0.516595E-004  0.704573E-001  0.847493       0.300802     
  0.694093E-001  0.198913E-001  0.190823E-004  0.310669E-005  0.908400       0.980468     
 
  0.111070E-005  0.224805E-005  0.121338E-004  0.133893E-001  0.414971       0.334070       0.610315       0.988411       0.508070       0.982936     
  0.104193       0.479720E-001  0.432811       0.955163       0.538818       0.262861       0.138395       0.347930E-003  0.572243E-005  0.960125     
  0.991764       0.739699E-006  0.283006E-005  0.728503E-005  0.503898E-002  0.332213       0.264888       0.549708       0.986399       0.374826     
  0.979242       0.630984E-001  0.223568E-001  0.352805       0.943264       0.485709       0.217235       0.100705       0.102390E-003  0.599961E-005
  0.952093       0.990459       0.220089E-005  0.405312E-005  0.129128E-004  0.876874E-002  0.367002       0.292756       0.604148       0.990703     
  0.335163       0.986289       0.247897       0.148432       0.596435       0.972533       0.483536       0.204264       0.101987       0.716448E-004
  0.508929E-005  0.951595       0.992854       0.521202E-006  0.187887E-005  0.451839E-005  0.746336E-003  0.221043       0.169483       0.445086     
  0.974604       0.302900       0.963063       0.781871E-002  0.498259E-003  0.127658       0.882522       0.402333       0.153938       0.570743E-001
  0.388080E-004  0.605510E-005  0.933205       0.985017       0.334030E-005  0.272315E-005  0.360425E-004  0.137833E-001  0.422544       0.332758     
  0.644606       0.992408       0.410200       0.988331       0.278119       0.170998       0.615041       0.974792       0.510113       0.229249     
  0.118774       0.820167E-004  0.978939E-005  0.956709       0.993999       0.707642E-006  0.583542E-006  0.290102E-005  0.627150E-004  0.121067     
  0.884837E-001  0.338986       0.964569       0.285237       0.944714       0.139287E-002  0.109367E-004  0.458419E-001  0.821835       0.284270     
  0.613593E-001  0.161035E-001  0.152673E-004  0.301417E-005  0.903144       0.978547     
 
  0.110506E-005  0.224805E-005  0.118610E-004  0.933820E-002  0.387311       0.309116       0.585502       0.986684       0.503883       0.980149     
  0.659771E-001  0.247130E-001  0.359408       0.944491       0.520040       0.245773       0.123873       0.227145E-003  0.572243E-005  0.957480     
  0.990818       0.736033E-006  0.283006E-005  0.728503E-005  0.331221E-002  0.306660       0.242351       0.525171       0.984684       0.370780     
  0.976281       0.398341E-001  0.112575E-001  0.291148       0.932092       0.466798       0.200971       0.885222E-001  0.733581E-004  0.599961E-005
  0.948987       0.989481       0.219601E-005  0.405312E-005  0.129128E-004  0.621150E-002  0.343296       0.271440       0.584224       0.989938     
  0.333202       0.984720       0.190248       0.101684       0.537799       0.966898       0.466025       0.189078       0.903006E-001  0.607604E-004
  0.508042E-005  0.948584       0.992263       0.513771E-006  0.187847E-005  0.451839E-005  0.449542E-003  0.198748       0.150991       0.417574     
  0.970134       0.298761       0.956967       0.385535E-002  0.123251E-003  0.871933E-001  0.859645       0.383795       0.139855       0.485749E-001
  0.383041E-004  0.600259E-005  0.929058       0.983262       0.333406E-005  0.272315E-005  0.360425E-004  0.103295E-001  0.400025       0.312640     
  0.627310       0.991782       0.408645       0.987072       0.223523       0.125229       0.564506       0.970148       0.494581       0.214912     
  0.107137       0.739865E-004  0.976615E-005  0.954185       0.993547       0.695324E-006  0.468656E-006  0.256479E-005  0.430852E-004  0.105031     
  0.761694E-001  0.313086       0.959133       0.281097       0.936846       0.676275E-003  0.202107E-005  0.284109E-001  0.793659       0.268447     
  0.541533E-001  0.129692E-001  0.116145E-004  0.291177E-005  0.897765       0.976460     
 
  0.109787E-005  0.224805E-005  0.118610E-004  0.633619E-002  0.359558       0.284481       0.559333       0.984489       0.499289       0.976770     
  0.389796E-001  0.112051E-001  0.287722       0.931499       0.501237       0.229160       0.110236       0.147959E-003  0.572243E-005  0.954680     
  0.989728       0.731377E-006  0.283006E-005  0.728503E-005  0.211898E-002  0.281540       0.220532       0.499729       0.982524       0.366528     
  0.972729       0.235151E-001  0.499100E-002  0.231787       0.918606       0.448055       0.185396       0.773383E-001  0.613022E-004  0.599961E-005
  0.945722       0.988366       0.219016E-005  0.405312E-005  0.129128E-004  0.432582E-002  0.319932       0.250753       0.563756       0.989038     
  0.331208       0.982930       0.140821       0.657963E-001  0.477507       0.960286       0.448730       0.174626       0.795597E-001  0.555601E-004
  0.506291E-005  0.945448       0.991617       0.505027E-006  0.184743E-005  0.451839E-005  0.271946E-003  0.177609       0.133732       0.389914     
  0.964829       0.294420       0.949943       0.190745E-002  0.261034E-004  0.567709E-001  0.833871       0.365676       0.126734       0.410977E-001
  0.366196E-004  0.592640E-005  0.924742       0.981320       0.332698E-005  0.272315E-005  0.360425E-004  0.766159E-002  0.377975       0.293231     
  0.609902       0.991084       0.407069       0.985699       0.176605       0.889571E-001  0.513853       0.964992       0.479323       0.201277     
  0.964146E-001  0.737569E-004  0.973589E-005  0.951593       0.993071       0.681330E-006  0.366739E-006  0.222964E-005  0.317374E-004  0.905919E-001
  0.652521E-001  0.287927       0.952904       0.276765       0.928023       0.331494E-003  0.318277E-006  0.167338E-001  0.762935       0.253355     
  0.477354E-001  0.103989E-001  0.838318E-005  0.280109E-005  0.892279       0.974198     
 
  0.108892E-005  0.224805E-005  0.118610E-004  0.416747E-002  0.331881       0.260301       0.531883       0.981752       0.494272       0.972707     
  0.215185E-001  0.444188E-002  0.221647       0.915932       0.482440       0.213056       0.975075E-001  0.103316E-003  0.572243E-005  0.951718     
  0.988483       0.725326E-006  0.283006E-005  0.728503E-005  0.132015E-002  0.256934       0.199479       0.473284       0.979734       0.362020     
  0.968390       0.128516E-001  0.187624E-002  0.176163       0.902133       0.429500       0.170522       0.671385E-001  0.577356E-004  0.599961E-005
  0.942284       0.987073       0.218302E-005  0.405312E-005  0.129128E-004  0.296625E-002  0.296997       0.230763       0.542725       0.987958     
  0.329131       0.980862       0.998360E-001  0.396404E-001  0.415893       0.952458       0.431655       0.160919       0.697465E-001  0.514478E-004
  0.503704E-005  0.942183       0.990904       0.494870E-006  0.172102E-005  0.448933E-005  0.168115E-003  0.157715       0.117742       0.362310     
  0.958602       0.289863       0.941911       0.965502E-003  0.461991E-005  0.351579E-001  0.805197       0.348013       0.114565       0.345726E-001
  0.341965E-004  0.582737E-005  0.920259       0.979181       0.331911E-005  0.272315E-005  0.360425E-004  0.563377E-002  0.356545       0.274631     
  0.592494       0.990317       0.405441       0.984218       0.137841       0.615425E-001  0.464553       0.959360       0.464382       0.188350     
  0.865891E-001  0.737569E-004  0.969331E-005  0.948943       0.992572       0.665622E-006  0.277008E-006  0.193072E-005  0.249271E-004  0.777174E-001
  0.556598E-001  0.263720       0.945836       0.272253       0.918217       0.171834E-003  0.421121E-007  0.937332E-002  0.729912       0.239019     
  0.420493E-001  0.830957E-002  0.587884E-005  0.268392E-005  0.886709       0.971762     
 
  0.107813E-005  0.224805E-005  0.118610E-004  0.266348E-002  0.304489       0.236743       0.503549       0.978437       0.488857       0.967919     
  0.111747E-001  0.153454E-002  0.164172       0.897803       0.463690       0.197501       0.857004E-001  0.854710E-004  0.572243E-005  0.948588     
  0.987085       0.717608E-006  0.283006E-005  0.728503E-005  0.803876E-003  0.232968       0.179284       0.445910       0.976181       0.357236     
  0.963127       0.645028E-002  0.581282E-003  0.127026       0.882316       0.411147       0.156363       0.579015E-001  0.571780E-004  0.599961E-005
  0.938666       0.985577       0.217418E-005  0.405312E-005  0.129128E-004  0.200945E-002  0.274571       0.211525       0.521142       0.986642     
  0.326941       0.978457       0.674144E-001  0.219317E-001  0.353989       0.943181       0.414811       0.147962       0.608345E-001  0.476357E-004
  0.500336E-005  0.938789       0.990111       0.483288E-006  0.150716E-005  0.437495E-005  0.107908E-003  0.139155       0.103052       0.335066     
  0.951410       0.285109       0.932838       0.490909E-003  0.692993E-006  0.206935E-001  0.773848       0.330838       0.103328       0.289243E-001
  0.310887E-004  0.570605E-005  0.915613       0.976846       0.331035E-005  0.272315E-005  0.360425E-004  0.409330E-002  0.335485       0.256594     
  0.574903       0.989474       0.403705       0.982609       0.105912       0.412984E-001  0.416726       0.953202       0.449532       0.175918     
  0.774744E-001  0.737569E-004  0.963402E-005  0.946190       0.992046       0.647237E-006  0.197833E-006  0.165887E-005  0.205844E-004  0.656691E-001
  0.468118E-001  0.239356       0.937442       0.267310       0.906794       0.835883E-004  0.365279E-008  0.475463E-002  0.692999       0.224611     
  0.367333E-001  0.652720E-002  0.412001E-005  0.255387E-005  0.880720       0.968994     
 
  0.106550E-005  0.224805E-005  0.118610E-004  0.165567E-002  0.277607       0.213973       0.474618       0.974524       0.483097       0.962376     
  0.554536E-002  0.462309E-003  0.116969       0.877140       0.445015       0.182533       0.748173E-001  0.764784E-004  0.572243E-005  0.945286     
  0.985538       0.707927E-006  0.283006E-005  0.728503E-005  0.481990E-003  0.209756       0.160028       0.417674       0.971715       0.352132     
  0.956783       0.303581E-002  0.147490E-003  0.862965E-001  0.858818       0.393006       0.142933       0.495975E-001  0.550259E-004  0.598969E-005
  0.934856       0.983855       0.216339E-005  0.405312E-005  0.129128E-004  0.135219E-002  0.252763       0.193108       0.499099       0.985056     
  0.324636       0.975675       0.433865E-001  0.110723E-001  0.293887       0.932334       0.398223       0.135752       0.527913E-001  0.463081E-004
  0.496068E-005  0.935264       0.989232       0.470239E-006  0.127508E-005  0.427337E-005  0.725342E-004  0.121983       0.896609E-001  0.308407     
  0.943188       0.280178       0.922671       0.229104E-003  0.928931E-007  0.115006E-001  0.740011       0.314181       0.929942E-001  0.240736E-001
  0.266164E-004  0.556388E-005  0.910807       0.974305       0.330025E-005  0.272315E-005  0.360425E-004  0.290883E-002  0.314098       0.238521     
  0.556566       0.988515       0.401800       0.980806       0.792407E-001  0.263923E-001  0.369127       0.946267       0.434252       0.163554     
  0.687528E-001  0.737569E-004  0.955242E-005  0.943225       0.991469       0.625960E-006  0.137796E-006  0.140316E-005  0.180112E-004  0.547411E-001
  0.388952E-001  0.215244       0.927537       0.261986       0.893550       0.490858E-004  0.220346E-009  0.219841E-002  0.652173       0.210465     
  0.318997E-001  0.506026E-002  0.285297E-005  0.241374E-005  0.874402       0.965902     
 
  0.105098E-005  0.224805E-005  0.118610E-004  0.100373E-002  0.251428       0.192128       0.445246       0.969977       0.477016       0.956019     
  0.260398E-002  0.119509E-003  0.799681E-001  0.853879       0.426434       0.168180       0.648607E-001  0.749188E-004  0.572243E-005  0.941808     
  0.983831       0.695819E-006  0.275790E-005  0.728503E-005  0.288568E-003  0.187387       0.141763       0.388611       0.966107       0.346624     
  0.949126       0.137263E-002  0.295687E-004  0.546853E-001  0.831132       0.375075       0.130234       0.421870E-001  0.516010E-004  0.595837E-005
  0.930840       0.981872       0.215053E-005  0.405312E-005  0.129128E-004  0.909102E-003  0.231701       0.175588       0.476738       0.983175     
  0.322208       0.972495       0.267989E-001  0.509500E-002  0.237890       0.919894       0.381921       0.124280       0.455799E-001  0.456869E-004
  0.490724E-005  0.931609       0.988267       0.454904E-006  0.103129E-005  0.426907E-005  0.503271E-004  0.105561       0.770442E-001  0.281242     
  0.933358       0.274811       0.910745       0.105038E-003  0.979415E-008  0.581892E-002  0.701955       0.297401       0.831513E-001  0.197785E-001
  0.210387E-004  0.539551E-005  0.905629       0.971409       0.328938E-005  0.272315E-005  0.360425E-004  0.207109E-002  0.293850       0.221632     
  0.538597       0.987488       0.399849       0.978900       0.588862E-001  0.165259E-001  0.325410       0.938866       0.419579       0.152088     
  0.609846E-001  0.737569E-004  0.945217E-005  0.940239       0.990879       0.604280E-006  0.970992E-007  0.119166E-005  0.167074E-004  0.458488E-001
  0.325284E-001  0.193960       0.917233       0.256892       0.879976       0.286524E-004  0.127100E-010  0.102455E-002  0.612392       0.197904     
  0.279233E-001  0.397037E-002  0.201014E-005  0.227915E-005  0.868387       0.962813     
 
  0.103368E-005  0.224802E-005  0.118610E-004  0.596744E-003  0.225988       0.171230       0.415138       0.964509       0.470438       0.948540     
  0.118707E-002  0.260674E-004  0.515174E-001  0.827157       0.407952       0.154447       0.558204E-001  0.655206E-004  0.572243E-005  0.938132     
  0.981906       0.680858E-006  0.253189E-005  0.726154E-005  0.175686E-003  0.165970       0.124552       0.358933       0.959133       0.340665     
  0.939942       0.605106E-003  0.451931E-005  0.320498E-001  0.798967       0.357357       0.118266       0.356245E-001  0.483447E-004  0.590140E-005
  0.926604       0.979596       0.213553E-005  0.401167E-005  0.129128E-004  0.613946E-003  0.211525       0.159048       0.454233       0.980989     
  0.319645       0.968907       0.160339E-001  0.214143E-002  0.187843       0.905882       0.365938       0.113533       0.391601E-001  0.454558E-004
  0.484089E-005  0.927826       0.987216       0.436963E-006  0.797397E-006  0.398636E-005  0.361249E-004  0.901547E-001  0.653884E-001  0.253932     
  0.921610       0.268975       0.896771       0.568737E-004  0.742358E-009  0.268588E-002  0.659555       0.280720       0.739446E-001  0.160637E-001
  0.166296E-004  0.520242E-005  0.900100       0.968122       0.327843E-005  0.272315E-005  0.360425E-004  0.149980E-002  0.275394       0.206420     
  0.521728       0.986460       0.397926       0.977003       0.439821E-001  0.103434E-001  0.286889       0.931478       0.405973       0.141817     
  0.543012E-001  0.737569E-004  0.933894E-005  0.937343       0.990303       0.582222E-006  0.678119E-007  0.101207E-005  0.159923E-004  0.384362E-001
  0.272671E-001  0.174753       0.906498       0.251929       0.865956       0.201497E-004  0.119958E-011  0.461835E-003  0.573380       0.186418     
  0.245414E-001  0.313248E-002  0.141255E-005  0.214841E-005  0.862516       0.959686     
 
  0.101035E-005  0.224276E-005  0.118610E-004  0.350865E-003  0.200928       0.150996       0.383079       0.957108       0.462812       0.938942     
  0.507500E-003  0.390589E-005  0.297579E-001  0.794044       0.389416       0.141253       0.476385E-001  0.593507E-004  0.572243E-005  0.934183     
  0.979566       0.662735E-006  0.220229E-005  0.724373E-005  0.110409E-003  0.145632       0.108467       0.328992       0.950599       0.334257     
  0.929052       0.239191E-003  0.540508E-006  0.172270E-001  0.762348       0.339864       0.107029       0.298597E-001  0.447922E-004  0.581843E-005
  0.922137       0.977001       0.211839E-005  0.379805E-005  0.129128E-004  0.418116E-003  0.192364       0.143554       0.431775       0.978501     
  0.316937       0.964912       0.934420E-002  0.825061E-003  0.144883       0.890366       0.350311       0.103491       0.334848E-001  0.444042E-004
  0.475967E-005  0.923918       0.986083       0.417904E-006  0.591852E-006  0.362489E-005  0.272008E-004  0.767859E-001  0.554210E-001  0.228776     
  0.908805       0.263111       0.881810       0.289843E-004  0.397910E-010  0.116284E-002  0.616728       0.265240       0.659062E-001  0.130764E-001
  0.128449E-004  0.499980E-005  0.894592       0.964675       0.326705E-005  0.263257E-005  0.360425E-004  0.109469E-002  0.257959       0.192211     
  0.505345       0.985394       0.395963       0.975052       0.327591E-001  0.638450E-002  0.252021       0.923884       0.392873       0.132264     
  0.483325E-001  0.725651E-004  0.921095E-005  0.934434       0.989722       0.559981E-006  0.471831E-007  0.858833E-006  0.155842E-004  0.322212E-001
  0.228862E-001  0.157406       0.895402       0.247077       0.851570       0.155476E-004  0.104282E-012  0.203920E-003  0.535416       0.175812     
  0.216310E-001  0.248045E-002  0.100091E-005  0.202159E-005  0.856748       0.956516     
 
  0.978010E-006  0.209934E-005  0.118610E-004  0.207926E-003  0.176275       0.131455       0.348831       0.946780       0.453777       0.926342     
  0.198724E-003  0.350029E-006  0.147876E-001  0.752757       0.370842       0.128647       0.403240E-001  0.548601E-004  0.571154E-005  0.929912     
  0.976655       0.640925E-006  0.183976E-005  0.724373E-005  0.719688E-004  0.126455       0.935365E-001  0.298901       0.940189       0.327352     
  0.916158       0.850926E-004  0.514633E-007  0.837476E-002  0.721030       0.322600       0.965137E-001  0.248370E-001  0.396557E-004  0.570942E-005
  0.917416       0.974035       0.209871E-005  0.347682E-005  0.129128E-004  0.286481E-003  0.174033       0.128931       0.409230       0.975653     
  0.314055       0.960440       0.530333E-002  0.286713E-003  0.108671       0.873143       0.334862       0.940095E-001  0.284338E-001  0.437164E-004
  0.466167E-005  0.919827       0.984850       0.397643E-006  0.435166E-006  0.322985E-005  0.211394E-004  0.650559E-001  0.467816E-001  0.205186     
  0.894772       0.257124       0.865622       0.211226E-004  0.177365E-011  0.478454E-003  0.573105       0.250615       0.587431E-001  0.106325E-001
  0.980434E-005  0.478797E-005  0.889014       0.961033       0.325532E-005  0.252555E-005  0.360425E-004  0.808285E-003  0.241581       0.179013     
  0.489534       0.984298       0.393975       0.973064       0.244043E-001  0.390729E-002  0.220906       0.916151       0.380322       0.123420     
  0.430313E-001  0.695860E-004  0.907050E-005  0.931528       0.989138       0.536998E-006  0.324363E-007  0.724652E-006  0.153310E-004  0.268512E-001
  0.191211E-001  0.141277       0.883629       0.242172       0.836412       0.127484E-004  0.636189E-014  0.862983E-004  0.497592       0.165670     
  0.190368E-001  0.195567E-002  0.710474E-006  0.189535E-005  0.850888       0.953205     
 
  0.936222E-006  0.183415E-005  0.118610E-004  0.126114E-003  0.152462       0.112914       0.313425       0.933212       0.443377       0.910522     
  0.498003E-004  0.216251E-007  0.628917E-002  0.704095       0.352316       0.116708       0.338694E-001  0.537841E-004  0.567452E-005  0.925312     
  0.973155       0.614507E-006  0.146688E-005  0.709776E-005  0.485007E-004  0.108462       0.797427E-001  0.268575       0.927350       0.319801     
  0.900743       0.309601E-004  0.350948E-008  0.363169E-002  0.674359       0.305555       0.867039E-001  0.204962E-001  0.354797E-004  0.557441E-005
  0.912409       0.970611       0.207560E-005  0.307632E-005  0.129128E-004  0.195701E-003  0.156085       0.114810       0.386009       0.972308     
  0.310912       0.955293       0.288164E-002  0.849167E-004  0.782960E-001  0.853551       0.319170       0.848354E-001  0.238467E-001  0.392866E-004
  0.454273E-005  0.915419       0.983469       0.376256E-006  0.317332E-006  0.283344E-005  0.168146E-004  0.547242E-001  0.392533E-001  0.183036     
  0.879457       0.250988       0.848156       0.157278E-004  0.632194E-013  0.189827E-003  0.528920       0.236626       0.522843E-001  0.861370E-002
  0.738747E-005  0.456723E-005  0.883302       0.957165       0.324334E-005  0.242294E-005  0.360425E-004  0.605770E-003  0.226297       0.166826     
  0.474349       0.983181       0.391994       0.971050       0.182385E-001  0.238221E-002  0.193476       0.908332       0.368364       0.115279     
  0.383503E-001  0.648473E-004  0.892021E-005  0.928646       0.988555       0.509072E-006  0.206410E-007  0.591814E-006  0.150700E-004  0.215359E-001
  0.154163E-001  0.123957       0.868877       0.236356       0.817558       0.126790E-004  0.217588E-015  0.293856E-004  0.453666       0.154444     
  0.163807E-001  0.147546E-002  0.476119E-006  0.174957E-005  0.843951       0.949159     
 
  0.882496E-006  0.154166E-005  0.118610E-004  0.781416E-004  0.129526       0.953606E-001  0.276820       0.915335       0.431299       0.890613     
  0.100976E-004  0.115053E-008  0.219858E-002  0.647406       0.333743       0.105369       0.281998E-001  0.503085E-004  0.560688E-005  0.920293     
  0.968910       0.582931E-006  0.110648E-005  0.664405E-005  0.336974E-004  0.917340E-001  0.671100E-001  0.238370       0.911614       0.311509     
  0.882426       0.102743E-004  0.147352E-009  0.137801E-002  0.622569       0.288727       0.775845E-001  0.167771E-001  0.318217E-004  0.541407E-005
  0.907084       0.966659       0.204996E-005  0.262959E-005  0.127843E-004  0.136394E-003  0.139540       0.101966       0.363393       0.968590     
  0.307660       0.949680       0.157188E-002  0.226845E-004  0.549127E-001  0.832486       0.304104       0.764646E-001  0.199331E-001  0.335337E-004
  0.440923E-005  0.910920       0.982015       0.354128E-006  0.226305E-006  0.245397E-005  0.136425E-004  0.457329E-001  0.327616E-001  0.162459     
  0.863004       0.244748       0.829551       0.134354E-004  0.567535E-014  0.701105E-004  0.484915       0.223290       0.464870E-001  0.695738E-002
  0.547722E-005  0.434096E-005  0.877480       0.953091       0.322916E-005  0.224151E-005  0.360372E-004  0.444378E-003  0.209915       0.153913     
  0.457506       0.981863       0.389762       0.968673       0.131097E-001  0.133896E-002  0.165913       0.899143       0.355268       0.106676     
  0.336210E-001  0.574801E-004  0.873445E-005  0.925349       0.987883       0.482468E-006  0.133632E-007  0.487825E-006  0.145968E-004  0.174423E-001
  0.125796E-001  0.109440       0.854325       0.230957       0.799118       0.126763E-004  0.313547E-016  0.103011E-004  0.414014       0.144680     
  0.142528E-001  0.113427E-002  0.327968E-006  0.161795E-005  0.837485       0.945247     
 
  0.812607E-006  0.117647E-005  0.114162E-004  0.491410E-004  0.107464       0.787563E-001  0.238760       0.891227       0.416973       0.865116     
  0.189642E-005  0.262217E-010  0.625591E-003  0.581439       0.315051       0.946101E-001  0.232676E-001  0.502452E-004  0.550318E-005  0.914713     
  0.963650       0.546190E-006  0.797164E-006  0.593991E-005  0.241120E-004  0.763943E-001  0.556852E-001  0.208774       0.892671       0.302455     
  0.860964       0.315786E-005  0.412461E-011  0.445960E-003  0.566494       0.272132       0.691359E-001  0.136190E-001  0.261347E-004  0.522958E-005
  0.901418       0.962141       0.202274E-005  0.221203E-005  0.124063E-004  0.979430E-004  0.124736       0.906232E-001  0.342092       0.964626     
  0.304393       0.943799       0.850807E-003  0.572426E-005  0.380452E-001  0.810837       0.290012       0.690285E-001  0.166874E-001  0.278331E-004
  0.426726E-005  0.906456       0.980528       0.331651E-006  0.157807E-006  0.210251E-005  0.112535E-004  0.379987E-001  0.272201E-001  0.143571     
  0.845585       0.238456       0.809987       0.134354E-004  0.819825E-015  0.242236E-004  0.441821       0.210625       0.413088E-001  0.560727E-002
  0.401932E-005  0.411251E-005  0.871577       0.948840       0.321410E-005  0.193649E-005  0.357134E-004  0.332432E-003  0.193976       0.141497     
  0.440679       0.980476       0.387524       0.966182       0.930101E-002  0.726839E-003  0.141033       0.889565       0.342168       0.983875E-001
  0.292872E-001  0.495304E-004  0.851722E-005  0.921885       0.987184       0.460957E-006  0.935964E-008  0.416401E-006  0.139981E-004  0.146714E-001
  0.106594E-001  0.987552E-001  0.842143       0.226626       0.783768       0.126763E-004  0.199658E-017  0.428521E-005  0.382963       0.137257     
  0.127429E-001  0.917312E-003  0.242745E-006  0.151628E-005  0.832271       0.942002     
 
  0.726637E-006  0.823378E-006  0.100910E-004  0.314120E-004  0.866860E-001  0.633557E-001  0.200634       0.859885       0.400294       0.833478     
  0.891204E-007  0.495154E-012  0.131315E-003  0.508563       0.296233       0.844410E-001  0.190177E-001  0.459015E-004  0.536245E-005  0.908477     
  0.957256       0.504410E-006  0.559732E-006  0.512354E-005  0.177155E-004  0.625385E-001  0.454872E-001  0.180090       0.870175       0.292621     
  0.836060       0.123258E-005  0.902081E-013  0.122308E-003  0.506898       0.255798       0.613366E-001  0.109622E-001  0.207885E-004  0.502229E-005
  0.895380       0.957004       0.199323E-005  0.181733E-005  0.118471E-004  0.714646E-004  0.111077       0.802880E-001  0.321384       0.960305     
  0.301010       0.937478       0.464598E-003  0.134906E-005  0.257382E-001  0.788032       0.276384       0.622016E-001  0.139095E-001  0.225301E-004
  0.411458E-005  0.901880       0.978964       0.307854E-006  0.106986E-006  0.176875E-005  0.932293E-005  0.310709E-001  0.222889E-001  0.125512     
  0.826272       0.231798       0.788450       0.134354E-004  0.264839E-016  0.767793E-005  0.397913       0.197981       0.364626E-001  0.445815E-002
  0.290797E-005  0.387179E-005  0.865279       0.944175       0.320156E-005  0.180228E-005  0.351585E-004  0.268145E-003  0.181499       0.131862     
  0.427116       0.979305       0.385717       0.964088       0.700949E-002  0.434514E-003  0.123145       0.881549       0.331572       0.918928E-001
  0.260635E-001  0.433419E-004  0.831446E-005  0.918953       0.986603       0.435713E-006  0.610462E-008  0.344405E-006  0.131059E-004  0.119163E-001
  0.874490E-002  0.872383E-001  0.827335       0.221539       0.765212       0.126763E-004  0.232631E-019  0.146813E-005  0.347748       0.128944     
  0.111608E-001  0.713039E-003  0.169845E-006  0.140154E-005  0.826099       0.938071     
 
  0.627270E-006  0.550759E-006  0.837361E-005  0.203578E-004  0.676665E-001  0.494266E-001  0.163469       0.820652       0.381220       0.795174     
  0.488135E-008  0.990992E-013  0.207155E-004  0.431182       0.277311       0.748733E-001  0.153906E-001  0.391372E-004  0.518622E-005  0.901492     
  0.949586       0.458248E-006  0.380186E-006  0.428764E-005  0.133104E-004  0.502603E-001  0.365396E-001  0.152909       0.843953       0.282063     
  0.807691       0.516686E-006  0.378069E-014  0.279987E-004  0.445503       0.239769       0.541727E-001  0.874877E-002  0.163254E-004  0.479383E-005
  0.888947       0.951217       0.196150E-005  0.146649E-005  0.111603E-004  0.530583E-004  0.985414E-001  0.709181E-001  0.301330       0.955627     
  0.297554       0.930712       0.254291E-003  0.292744E-006  0.169857E-001  0.764192       0.263229       0.559556E-001  0.115464E-001  0.179269E-004
  0.395297E-005  0.897200       0.977324       0.281062E-006  0.693662E-007  0.144511E-005  0.767776E-005  0.246256E-001  0.177309E-001  0.107408     
  0.803312       0.224291       0.763058       0.134354E-004  0.114846E-017  0.188110E-005  0.350810       0.184716       0.317347E-001  0.344805E-002
  0.202800E-005  0.360563E-005  0.858171       0.938726       0.318980E-005  0.167453E-005  0.344997E-004  0.223212E-003  0.170517       0.123440     
  0.414898       0.978203       0.384068       0.962137       0.540953E-002  0.269463E-003  0.108623       0.874149       0.321961       0.861754E-001
  0.233545E-001  0.380998E-004  0.811406E-005  0.916190       0.986063       0.406391E-006  0.369364E-008  0.276452E-006  0.116957E-004  0.932306E-002
  0.694122E-002  0.753438E-001  0.809404       0.215779       0.742873       0.126763E-004  0.192875E-021  0.398757E-006  0.308900       0.119991     
  0.958722E-002  0.533617E-003  0.112569E-006  0.127585E-005  0.818989       0.933393     
 
  0.523739E-006  0.352744E-006  0.661278E-005  0.134109E-004  0.511572E-001  0.374339E-001  0.129555       0.775242       0.360571       0.751580     
  0.352291E-009  0.383867E-013  0.252001E-005  0.354947       0.258455       0.659766E-001  0.123266E-001  0.332262E-004  0.497974E-005  0.893814     
  0.940814       0.408704E-006  0.245635E-006  0.347719E-005  0.101589E-004  0.395975E-001  0.288276E-001  0.127618       0.813876       0.270786     
  0.775805       0.294527E-006  0.183216E-014  0.510689E-005  0.383912       0.224080       0.476211E-001  0.692254E-002  0.124517E-004  0.454656E-005
  0.882094       0.944736       0.192762E-005  0.116769E-005  0.104001E-004  0.402148E-004  0.871021E-001  0.624654E-001  0.282023       0.950596     
  0.294055       0.923517       0.140284E-003  0.574375E-007  0.109532E-001  0.739473       0.250551       0.502613E-001  0.954783E-002  0.140907E-004
  0.378417E-005  0.892422       0.975611       0.255335E-006  0.440892E-007  0.117724E-005  0.644502E-005  0.195745E-001  0.141799E-001  0.920444E-001
  0.779862       0.217056       0.737496       0.134354E-004  0.567277E-018  0.464980E-006  0.308283       0.172903       0.278275E-001  0.270088E-002
  0.143870E-005  0.335833E-005  0.851337       0.933254       0.317571E-005  0.148839E-005  0.335439E-004  0.183785E-003  0.158221       0.114084     
  0.400923       0.976882       0.382157       0.959826       0.400721E-002  0.153515E-003  0.937526E-001  0.865480       0.310855       0.797719E-001
  0.204666E-001  0.325070E-004  0.786058E-005  0.912862       0.985423       0.387349E-006  0.263990E-008  0.239045E-006  0.106863E-004  0.790830E-002
  0.595285E-002  0.682954E-001  0.797308       0.212055       0.727810       0.696046E-005  0.192875E-021  0.167997E-006  0.284679       0.114431     
  0.867567E-002  0.440881E-003  0.858245E-007  0.119732E-005  0.814309       0.930245     
 
  0.425090E-006  0.210095E-006  0.499356E-005  0.900898E-005  0.375700E-001  0.276040E-001  0.100247       0.726014       0.339128       0.704339     
  0.383674E-010  0.372421E-013  0.193297E-006  0.284324       0.239839       0.577903E-001  0.976656E-002  0.274089E-004  0.474846E-005  0.885558     
  0.931145       0.357281E-006  0.153678E-006  0.273651E-005  0.782208E-005  0.305446E-001  0.223144E-001  0.104666       0.780059       0.258854     
  0.740586       0.207386E-006  0.345079E-016  0.855922E-006  0.323985       0.208772       0.416637E-001  0.543026E-002  0.917635E-005  0.428397E-005
  0.874806       0.937541       0.189165E-005  0.917140E-006  0.960010E-005  0.312414E-004  0.767209E-001  0.548756E-001  0.263497       0.945202     
  0.290524       0.915900       0.773433E-004  0.102301E-007  0.689709E-002  0.713964       0.238354       0.450860E-001  0.786709E-002  0.109712E-004
  0.361000E-005  0.887556       0.973826       0.231675E-006  0.288263E-007  0.964170E-006  0.548767E-005  0.157112E-001  0.114659E-001  0.792637E-001
  0.756837       0.210266       0.712700       0.134354E-004  0.312430E-020  0.118631E-006  0.270867       0.162594       0.246416E-001  0.215384E-002
  0.104598E-005  0.313675E-005  0.844933       0.927927       0.316084E-005  0.129505E-005  0.323238E-004  0.154185E-003  0.146029       0.104897     
  0.386770       0.975491       0.380272       0.957411       0.295670E-002  0.852678E-004  0.804419E-001  0.856447       0.299438       0.734117E-001
  0.177544E-001  0.272890E-004  0.756959E-005  0.909268       0.984752       0.362361E-006  0.166655E-008  0.196093E-006  0.935400E-005  0.631018E-002
  0.482613E-002  0.596908E-001  0.780819       0.207085       0.707349       0.208155E-005  0.192875E-021  0.517061E-007  0.254134       0.107280     
  0.757487E-002  0.340111E-003  0.593423E-007  0.109704E-005  0.807969       0.925927     
 
  0.335286E-006  0.119451E-006  0.361501E-005  0.615153E-005  0.267847E-001  0.198093E-001  0.757259E-001  0.673986       0.317155       0.654218     
  0.864032E-011  0.197418E-014  0.174478E-007  0.221301       0.221562       0.503106E-001  0.765233E-002  0.209885E-004  0.449533E-005  0.876741     
  0.920608       0.304787E-006  0.931826E-007  0.210022E-005  0.602072E-005  0.229453E-001  0.168642E-001  0.840611E-001  0.742115       0.246158     
  0.701685       0.207386E-006  0.345079E-016  0.936457E-007  0.266747       0.193705       0.362160E-001  0.421033E-002  0.655717E-005  0.400675E-005
  0.866969       0.929524       0.185358E-005  0.709079E-006  0.877892E-005  0.249619E-004  0.673491E-001  0.480892E-001  0.245735       0.939420     
  0.286959       0.907843       0.417942E-004  0.168221E-008  0.422866E-002  0.687697       0.226645       0.403948E-001  0.646139E-002  0.847710E-005
  0.343245E-005  0.882610       0.971963       0.209000E-006  0.188340E-007  0.786228E-006  0.468209E-005  0.125687E-001  0.925325E-002  0.680282E-001
  0.733222       0.203545       0.687516       0.134354E-004  0.192875E-021  0.287448E-007  0.236549       0.152976       0.218536E-001  0.172224E-002
  0.762939E-006  0.292658E-005  0.838553       0.922468       0.315027E-005  0.116474E-005  0.313754E-004  0.137579E-003  0.137774       0.987222E-001
  0.376959       0.974500       0.379028       0.955684       0.238645E-002  0.558690E-004  0.721009E-001  0.850030       0.291442       0.691009E-001
  0.160074E-001  0.239873E-004  0.735133E-005  0.906646       0.984274       0.337058E-006  0.103216E-008  0.160138E-006  0.793210E-005  0.498171E-002
  0.388434E-002  0.518704E-001  0.763377       0.202040       0.685714       0.590615E-006  0.192875E-021  0.161358E-007  0.224700       0.100450     
  0.659919E-002  0.261171E-003  0.407251E-007  0.100019E-005  0.801494       0.921388     
 
  0.256316E-006  0.656980E-007  0.253959E-005  0.423909E-005  0.184939E-001  0.138078E-001  0.557994E-001  0.619807       0.294791       0.601801     
  0.488767E-011  0.179369E-014  0.724650E-009  0.167045       0.203696       0.435177E-001  0.592697E-002  0.152638E-004  0.422354E-005  0.867343     
  0.909208       0.251439E-006  0.515273E-007  0.154775E-005  0.458070E-005  0.165967E-001  0.123170E-001  0.655656E-001  0.698860       0.232394     
  0.658096       0.207386E-006  0.345079E-016  0.820536E-008  0.212584       0.178588       0.311645E-001  0.320647E-002  0.453649E-005  0.371237E-005
  0.858336       0.920372       0.180826E-005  0.527172E-006  0.787296E-005  0.202039E-004  0.580477E-001  0.414179E-001  0.226885       0.932425     
  0.282942       0.898281       0.210889E-004  0.201153E-009  0.238061E-002  0.657576       0.214243       0.357168E-001  0.517635E-002  0.632005E-005
  0.323326E-005  0.877033       0.969791       0.183593E-006  0.113314E-007  0.614989E-006  0.388685E-005  0.961013E-002  0.716216E-002  0.565402E-001
  0.704610       0.195708       0.657300       0.126464E-004  0.192875E-021  0.499423E-008  0.199997       0.142424       0.189990E-001  0.132693E-002
  0.527671E-006  0.269247E-005  0.831042       0.915852       0.313828E-005  0.102805E-005  0.302699E-004  0.121618E-003  0.128863       0.920876E-001
  0.366076       0.973374       0.377665       0.953718       0.187265E-002  0.344654E-004  0.636468E-001  0.842763       0.282530       0.644501E-001
  0.142075E-001  0.206595E-004  0.710019E-005  0.903629       0.983729       0.320770E-006  0.746131E-009  0.139702E-006  0.705827E-005  0.424364E-002
  0.335414E-002  0.471642E-001  0.751681       0.198693       0.671271       0.253239E-006  0.192875E-021  0.742117E-008  0.206539       0.960951E-001
  0.601454E-002  0.218672E-003  0.316067E-007  0.939301E-006  0.797152       0.918316     
 
  0.188200E-006  0.327421E-007  0.170818E-005  0.291493E-005  0.122751E-001  0.928765E-002  0.398489E-001  0.563075       0.271825       0.546931     
  0.279426E-011  0.179369E-014  0.260101E-010  0.121487       0.186215       0.373718E-001  0.453521E-002  0.107409E-004  0.393659E-005  0.857245     
  0.896741       0.200892E-006  0.275964E-007  0.110064E-005  0.345350E-005  0.116526E-001  0.876441E-002  0.498458E-001  0.651773       0.218064     
  0.611369       0.207386E-006  0.192875E-021  0.589511E-009  0.164109       0.164048       0.266905E-001  0.242417E-002  0.309196E-005  0.341679E-005
  0.849174       0.910270       0.175851E-005  0.383848E-006  0.698880E-005  0.170212E-004  0.496314E-001  0.354378E-001  0.208558       0.924626     
  0.278830       0.887812       0.105199E-004  0.207749E-010  0.127022E-002  0.625788       0.202169       0.314561E-001  0.411096E-002  0.464457E-005
  0.302835E-005  0.871234       0.967458       0.157174E-006  0.639686E-008  0.465340E-006  0.313376E-005  0.708494E-002  0.536743E-002  0.457709E-001
  0.671888       0.187167       0.623060       0.206885E-005  0.192875E-021  0.742865E-009  0.164072       0.131661       0.163113E-001  0.998759E-003
  0.352671E-006  0.244993E-005  0.822735       0.908268       0.312432E-005  0.878998E-006  0.288912E-004  0.106618E-003  0.118929       0.847531E-001
  0.353656       0.972070       0.376110       0.951401       0.141357E-002  0.195215E-004  0.549972E-001  0.834267       0.272225       0.592607E-001
  0.123046E-001  0.172252E-004  0.678960E-005  0.899986       0.983091       0.296234E-006  0.448971E-009  0.113135E-006  0.576010E-005  0.329847E-002
  0.266885E-002  0.406409E-001  0.733322       0.193573       0.648612       0.690636E-007  0.192875E-021  0.231154E-008  0.180352       0.897422E-001
  0.521506E-002  0.166467E-003  0.213884E-007  0.850677E-006  0.790460       0.913485     
 
  0.131178E-006  0.154105E-007  0.108541E-005  0.197186E-005  0.776024E-002  0.597800E-002  0.273125E-001  0.503541       0.248076       0.489513     
  0.120765E-011  0.192875E-021  0.782985E-012  0.842536E-001  0.169101       0.318259E-001  0.342613E-002  0.736033E-005  0.363812E-005  0.846294     
  0.882899       0.156057E-006  0.143197E-007  0.763915E-006  0.258711E-005  0.799492E-002  0.611549E-002  0.371868E-001  0.602809       0.203720     
  0.563410       0.207386E-006  0.192875E-021  0.333619E-010  0.123601       0.150385       0.228162E-001  0.182938E-002  0.209564E-005  0.312991E-005
  0.839673       0.899512       0.171136E-005  0.284897E-006  0.624278E-005  0.148887E-004  0.429096E-001  0.306946E-001  0.192863       0.917108     
  0.275176       0.877793       0.434906E-005  0.228179E-011  0.701937E-003  0.596501       0.191745       0.280097E-001  0.332660E-002  0.349316E-005
  0.284377E-005  0.865909       0.965261       0.137127E-006  0.396330E-008  0.368126E-006  0.259872E-005  0.547794E-002  0.421478E-002  0.382793E-001
  0.644485       0.180226       0.594617       0.424377E-006  0.192875E-021  0.172876E-009  0.138184       0.123440       0.144030E-001  0.792342E-003
  0.253758E-006  0.226303E-005  0.815886       0.901850       0.311569E-005  0.793932E-006  0.280097E-004  0.986187E-004  0.113035       0.804279E-001
  0.346101       0.971267       0.375153       0.949954       0.118748E-002  0.136800E-004  0.502130E-001  0.828984       0.265905       0.561825E-001
  0.112297E-001  0.153362E-004  0.659144E-005  0.897669       0.982693       0.282405E-006  0.332197E-009  0.999359E-007  0.507094E-005  0.283977E-002
  0.233165E-002  0.372134E-001  0.722538       0.190605       0.635343       0.329021E-007  0.192875E-021  0.117302E-008  0.166233       0.862023E-001
  0.479581E-002  0.141895E-003  0.170047E-007  0.801890E-006  0.786535       0.910623     
 
  0.861854E-007  0.669701E-008  0.650227E-006  0.130038E-005  0.464168E-002  0.365953E-002  0.178880E-001  0.442385       0.223901       0.430583     
  0.675817E-012  0.192875E-021  0.169551E-013  0.554110E-001  0.152395       0.268357E-001  0.255022E-002  0.491513E-005  0.333141E-005  0.834401     
  0.867637       0.117446E-006  0.709084E-008  0.514395E-006  0.189033E-005  0.531892E-002  0.415369E-002  0.270835E-001  0.552312       0.189273     
  0.514365       0.288266E-007  0.192875E-021  0.181762E-011  0.903517E-001  0.137289       0.193875E-001  0.136770E-002  0.139926E-005  0.284737E-005
  0.829640       0.887951       0.166326E-005  0.209874E-006  0.556249E-005  0.131961E-004  0.370054E-001  0.265477E-001  0.178164       0.909321     
  0.271572       0.867449       0.172081E-005  0.229005E-012  0.382773E-003  0.567383       0.181817       0.249254E-001  0.268629E-002  0.261664E-005
  0.266230E-005  0.860541       0.963014       0.119823E-006  0.249195E-008  0.293341E-006  0.215858E-005  0.426572E-002  0.333477E-002  0.321781E-001
  0.618547       0.173727       0.567838       0.893109E-007  0.192875E-021  0.452945E-010  0.116707       0.116033       0.127848E-001  0.634907E-003
  0.185134E-006  0.209469E-005  0.809319       0.895633       0.310340E-005  0.683904E-006  0.267523E-004  0.884630E-004  0.105022       0.745708E-001
  0.335528       0.970124       0.373790       0.947878       0.925630E-003  0.820797E-005  0.440713E-001  0.821445       0.257029       0.520043E-001
  0.983658E-002  0.129544E-004  0.630879E-005  0.894315       0.982122       0.260891E-006  0.203187E-009  0.817887E-007  0.406265E-005  0.222272E-002
  0.187210E-002  0.322407E-001  0.705065       0.185870       0.613897       0.103944E-007  0.192875E-021  0.398222E-009  0.145203       0.807740E-001
  0.418922E-002  0.109787E-003  0.117474E-007  0.727787E-006  0.780203       0.905954     
 
 )
