TRANSMISSION%TAU_TOTAL = (
  0.138409E-006  0.183091E-007  0.117864E-005  0.210071E-005  0.842597E-002  0.640841E-002  0.285420E-001  0.484269       0.223268       0.483783     
  0.146081E-011  0.220234E-019  0.212854E-011  0.898783E-001  0.166462       0.319381E-001  0.356286E-002  0.787721E-005  0.355786E-005  0.809940     
  0.839794       0.102990E-006  0.564655E-008  0.440058E-006  0.164761E-005  0.452862E-002  0.352206E-002  0.231549E-001  0.496148       0.158586     
  0.477332       0.168870E-007  0.180978E-021  0.869581E-012  0.795784E-001  0.127406       0.176932E-001  0.121104E-002  0.120602E-005  0.263596E-005
  0.781276       0.829053       0.142525E-005  0.762803E-007  0.364561E-005  0.850335E-005  0.218743E-001  0.156915E-001  0.128122       0.811015     
  0.221895       0.791877       0.902087E-007  0.171958E-015  0.552067E-004  0.460168       0.146066       0.164465E-001  0.131126E-002  0.101133E-005
  0.205243E-005  0.796572       0.894639       0.112580E-006  0.232242E-008  0.275201E-006  0.202670E-005  0.399239E-002  0.309780E-002  0.297290E-001
  0.571570       0.150442       0.540432       0.799748E-007  0.182182E-021  0.414532E-010  0.110695       0.110412       0.121459E-001  0.601261E-003
  0.174769E-006  0.198944E-005  0.768653       0.844334       0.305779E-005  0.899997E-006  0.286404E-004  0.108339E-003  0.118987       0.846143E-001
  0.347175       0.943958       0.356824       0.934326       0.149748E-002  0.225591E-004  0.563318E-001  0.821599       0.270221       0.596366E-001
  0.126006E-001  0.178343E-004  0.675090E-005  0.883592       0.961509       0.235875E-006  0.144807E-009  0.690049E-007  0.338418E-005  0.182445E-002
  0.154786E-002  0.276708E-001  0.645836       0.160012       0.574859       0.500821E-008  0.182751E-021  0.202987E-009  0.128284       0.743371E-001
  0.370165E-002  0.903957E-004  0.905313E-008  0.656573E-006  0.739695       0.854338     
 )
TRANSMISSION%TAU_LAYERS = (
   1.00000        1.00000        1.00000        1.00000        1.00000        1.00000        1.00000        1.00000        1.00000        1.00000     
   1.00000        1.00000        1.00000        1.00000        1.00000        1.00000        1.00000        1.00000        1.00000        1.00000     
   1.00000        1.00000        1.00000        1.00000        1.00000        1.00000        1.00000        1.00000        1.00000        1.00000     
   1.00000        1.00000        1.00000        1.00000        1.00000        1.00000        1.00000        1.00000        1.00000        1.00000     
   1.00000        1.00000        1.00000        1.00000        1.00000        1.00000        1.00000        1.00000        1.00000        1.00000     
   1.00000        1.00000        1.00000        1.00000        1.00000        1.00000        1.00000        1.00000        1.00000        1.00000     
   1.00000        1.00000        1.00000        1.00000        1.00000        1.00000        1.00000        1.00000        1.00000        1.00000     
   1.00000        1.00000        1.00000        1.00000        1.00000        1.00000        1.00000        1.00000        1.00000        1.00000     
   1.00000        1.00000        1.00000        1.00000        1.00000        1.00000        1.00000        1.00000        1.00000        1.00000     
   1.00000        1.00000        1.00000        1.00000        1.00000        1.00000        1.00000        1.00000        1.00000        1.00000     
   1.00000        1.00000        1.00000        1.00000        1.00000        1.00000        1.00000        1.00000        1.00000        1.00000     
   1.00000        1.00000        1.00000        1.00000        1.00000        1.00000        1.00000        1.00000        1.00000        1.00000     
   1.00000        1.00000        1.00000        1.00000        1.00000        1.00000     
 
  0.969021       0.996935       0.999871       0.999932       0.999996       0.999965       0.999995        1.00000       0.999970        1.00000     
   1.00000        1.00000        1.00000        1.00000       0.999753       0.999997       0.999992       0.999800       0.998113        1.00000     
   1.00000       0.973232       0.997280       0.999899       0.999950       0.999997       0.999973       0.999996        1.00000       0.999971     
   1.00000        1.00000        1.00000        1.00000        1.00000       0.999907       0.999999       0.999995       0.999810       0.998427     
   1.00000        1.00000       0.969065       0.997173       0.999828       0.999894       0.999994       0.999952       0.999990        1.00000     
  0.999977        1.00000        1.00000        1.00000        1.00000        1.00000       0.999664       0.999994       0.999986       0.999826     
  0.997862        1.00000        1.00000       0.976726       0.997638       0.999913       0.999957       0.999997       0.999976       0.999997     
   1.00000       0.999970        1.00000        1.00000        1.00000        1.00000        1.00000       0.999892       0.999999       0.999996     
  0.999825       0.998644        1.00000        1.00000       0.973289       0.997572       0.999840       0.999900       0.999994       0.999959     
  0.999990        1.00000       0.999984        1.00000        1.00000        1.00000        1.00000        1.00000       0.999770       0.999995     
  0.999986       0.999877       0.998034        1.00000        1.00000       0.972865       0.997525       0.999853       0.999909       0.999995     
  0.999956       0.999992        1.00000       0.999972        1.00000        1.00000        1.00000        1.00000        1.00000       0.999785     
  0.999997       0.999989       0.999822       0.998220        1.00000        1.00000     
 
  0.946410       0.995300       0.999623       0.999745       0.999985       0.999877       0.999977        1.00000       0.999930        1.00000     
  0.999999       0.999999        1.00000        1.00000       0.999725       0.999993       0.999966       0.999606       0.996188        1.00000     
   1.00000       0.954804       0.995814       0.999739       0.999833       0.999990       0.999915       0.999986        1.00000       0.999940     
   1.00000       0.999999        1.00000        1.00000        1.00000       0.999887       0.999998       0.999980       0.999654       0.997076     
   1.00000        1.00000       0.949597       0.995630       0.999621       0.999740       0.999984       0.999888       0.999974        1.00000     
  0.999954        1.00000       0.999999        1.00000        1.00000        1.00000       0.999402       0.999988       0.999962       0.999683     
  0.996093        1.00000        1.00000       0.962820       0.996354       0.999829       0.999902       0.999994       0.999948       0.999992     
   1.00000       0.999947        1.00000        1.00000        1.00000        1.00000        1.00000       0.999846       0.999998       0.999989     
  0.999713       0.997742        1.00000        1.00000       0.956809       0.996150       0.999704       0.999805       0.999988       0.999922     
  0.999980        1.00000       0.999971        1.00000        1.00000        1.00000        1.00000        1.00000       0.999609       0.999991     
  0.999972       0.999787       0.996650        1.00000        1.00000       0.955272       0.995948       0.999732       0.999828       0.999990     
  0.999918       0.999985        1.00000       0.999951        1.00000       0.999999        1.00000        1.00000        1.00000       0.999651     
  0.999994       0.999978       0.999699       0.996948        1.00000        1.00000     
 
  0.920476       0.993467       0.999103       0.999332       0.999955       0.999712       0.999930        1.00000       0.999848        1.00000     
  0.999998       0.999998       0.999999        1.00000       0.999725       0.999989       0.999895       0.999359       0.992736       0.999999     
   1.00000       0.934102       0.994355       0.999409       0.999576       0.999972       0.999803       0.999959        1.00000       0.999878     
   1.00000       0.999998       0.999999        1.00000        1.00000       0.999887       0.999995       0.999940       0.999465       0.994787     
   1.00000        1.00000       0.929534       0.994288       0.999278       0.999466       0.999965       0.999780       0.999943        1.00000     
  0.999916        1.00000       0.999998       0.999999        1.00000        1.00000       0.999101       0.999979       0.999917       0.999496     
  0.993731        1.00000        1.00000       0.945238       0.995110       0.999639       0.999754       0.999984       0.999874       0.999980     
   1.00000       0.999909        1.00000       0.999999       0.999999        1.00000        1.00000       0.999838       0.999997       0.999970     
  0.999554       0.996381        1.00000        1.00000       0.935826       0.994812       0.999360       0.999533       0.999969       0.999819     
  0.999949        1.00000       0.999938        1.00000       0.999999       0.999999        1.00000        1.00000       0.999323       0.999982     
  0.999928       0.999605       0.994175        1.00000        1.00000       0.934244       0.994499       0.999403       0.999571       0.999973     
  0.999807       0.999958        1.00000       0.999903        1.00000       0.999999       0.999999        1.00000        1.00000       0.999553     
  0.999989       0.999938       0.999506       0.994676        1.00000        1.00000     
 
  0.893102       0.991361       0.998307       0.998637       0.999891       0.999484       0.999834        1.00000       0.999654        1.00000     
  0.999995       0.999996       0.999999        1.00000       0.999725       0.999983       0.999743       0.999000       0.988325       0.999999     
   1.00000       0.908761       0.992487       0.998823       0.999100       0.999934       0.999623       0.999901        1.00000       0.999746     
   1.00000       0.999997       0.999998       0.999999        1.00000       0.999887       0.999992       0.999850       0.999200       0.991074     
  0.999999        1.00000       0.904697       0.992512       0.998612       0.998903       0.999919       0.999584       0.999871        1.00000     
  0.999817        1.00000       0.999997       0.999998       0.999999        1.00000       0.998907       0.999966       0.999807       0.999213     
  0.989826       0.999999        1.00000       0.921051       0.993352       0.999146       0.999370       0.999957       0.999715       0.999937     
   1.00000       0.999809        1.00000       0.999998       0.999998       0.999999        1.00000       0.999838       0.999994       0.999906     
  0.999326       0.993045       0.999999        1.00000       0.918723       0.993647       0.998926       0.999162       0.999938       0.999695     
  0.999901        1.00000       0.999876        1.00000       0.999998       0.999999        1.00000        1.00000       0.999115       0.999973     
  0.999859       0.999425       0.991588        1.00000        1.00000       0.919382       0.993419       0.999055       0.999288       0.999951     
  0.999698       0.999924        1.00000       0.999838        1.00000       0.999998       0.999998       0.999999        1.00000       0.999530     
  0.999986       0.999885       0.999338       0.992545       0.999999        1.00000     
 
  0.863112       0.988793       0.997293       0.997628       0.999772       0.999217       0.999672        1.00000       0.999245        1.00000     
  0.999990       0.999993       0.999997       0.999999       0.999725       0.999975       0.999462       0.998467       0.983600       0.999999     
   1.00000       0.880955       0.990267       0.997927       0.998302       0.999855       0.999377       0.999785        1.00000       0.999468     
   1.00000       0.999994       0.999996       0.999998        1.00000       0.999887       0.999987       0.999665       0.998792       0.986302     
  0.999999        1.00000       0.882328       0.990725       0.997826       0.998145       0.999840       0.999367       0.999758        1.00000     
  0.999605        1.00000       0.999994       0.999997       0.999999        1.00000       0.998825       0.999953       0.999620       0.998838     
  0.986184       0.999999        1.00000       0.900031       0.991723       0.998558       0.998870       0.999911       0.999546       0.999869     
   1.00000       0.999648        1.00000       0.999996       0.999997       0.999999        1.00000       0.999838       0.999990       0.999799     
  0.999056       0.989653       0.999999        1.00000       0.902266       0.992473       0.998448       0.998733       0.999898       0.999560     
  0.999843        1.00000       0.999788        1.00000       0.999997       0.999998       0.999999        1.00000       0.998912       0.999962     
  0.999772       0.999226       0.988992        1.00000        1.00000       0.899009       0.991879       0.998488       0.998817       0.999912     
  0.999528       0.999863        1.00000       0.999722        1.00000       0.999996       0.999997       0.999999        1.00000       0.999530     
  0.999980       0.999790       0.999079       0.989237       0.999999        1.00000     
 
  0.827661       0.985467       0.996079       0.996302       0.999578       0.998922       0.999443        1.00000       0.998491       0.999999     
  0.999983       0.999989       0.999995       0.999999       0.999712       0.999961       0.999003       0.997709       0.978480       0.999998     
   1.00000       0.847439       0.987284       0.996740       0.997055       0.999693       0.999077       0.999575        1.00000       0.998876     
   1.00000       0.999988       0.999993       0.999997       0.999999       0.999887       0.999979       0.999289       0.998124       0.981151     
  0.999998        1.00000       0.859053       0.988675       0.996989       0.997261       0.999727       0.999148       0.999612        1.00000     
  0.999230        1.00000       0.999990       0.999994       0.999998       0.999999       0.998746       0.999939       0.999353       0.998364     
  0.982654       0.999999        1.00000       0.875672       0.989718       0.997754       0.998135       0.999833       0.999329       0.999757     
   1.00000       0.999375        1.00000       0.999993       0.999996       0.999998        1.00000       0.999838       0.999986       0.999617     
  0.998667       0.985496       0.999999        1.00000       0.882411       0.990922       0.997739       0.998026       0.999823       0.999362     
  0.999738        1.00000       0.999594        1.00000       0.999994       0.999997       0.999999        1.00000       0.998641       0.999946     
  0.999606       0.998901       0.985934       0.999999        1.00000       0.874288       0.989767       0.997617       0.997997       0.999823     
  0.999291       0.999736        1.00000       0.999398        1.00000       0.999992       0.999995       0.999998        1.00000       0.999530     
  0.999971       0.999574       0.998622       0.985065       0.999999        1.00000     
 
  0.784458       0.981107       0.994642       0.994720       0.999298       0.998599       0.999160        1.00000       0.997244       0.999999     
  0.999973       0.999984       0.999992       0.999997       0.999679       0.999939       0.998336       0.996704       0.972553       0.999997     
   1.00000       0.807710       0.983435       0.995344       0.995473       0.999437       0.998754       0.999294        1.00000       0.997861     
  0.999999       0.999979       0.999988       0.999995       0.999998       0.999887       0.999965       0.998684       0.997184       0.975531     
  0.999997        1.00000       0.830879       0.986001       0.995998       0.996164       0.999564       0.998904       0.999421        1.00000     
  0.998586       0.999999       0.999984       0.999992       0.999996       0.999999       0.998613       0.999922       0.998965       0.997728     
  0.978623       0.999998        1.00000       0.842599       0.986745       0.996571       0.996881       0.999670       0.999035       0.999544     
   1.00000       0.998805       0.999999       0.999987       0.999993       0.999997       0.999999       0.999838       0.999977       0.999229     
  0.997983       0.980391       0.999998        1.00000       0.860928       0.989035       0.996975       0.997190       0.999715       0.999157     
  0.999600        1.00000       0.999218        1.00000       0.999991       0.999995       0.999998       0.999999       0.998298       0.999927     
  0.999362       0.998473       0.982895       0.999999        1.00000       0.851135       0.987611       0.996808       0.997155       0.999709     
  0.999087       0.999590        1.00000       0.998929        1.00000       0.999988       0.999993       0.999997       0.999999       0.999508     
  0.999960       0.999297       0.998119       0.981509       0.999998        1.00000     
 
  0.731960       0.975488       0.992941       0.993006       0.998926       0.998244       0.998842        1.00000       0.995357       0.999998     
  0.999958       0.999977       0.999989       0.999995       0.999621       0.999907       0.997453       0.995450       0.965446       0.999995     
  0.999999       0.761449       0.978649       0.993747       0.993764       0.999102       0.998415       0.998986        1.00000       0.996418     
  0.999998       0.999968       0.999983       0.999992       0.999996       0.999887       0.999944       0.997875       0.996017       0.969148     
  0.999996        1.00000       0.795936       0.982468       0.994817       0.994852       0.999335       0.998632       0.999186        1.00000     
  0.997538       0.999999       0.999976       0.999988       0.999995       0.999998       0.998418       0.999900       0.998423       0.996895     
  0.973801       0.999997        1.00000       0.800881       0.982712       0.995042       0.995133       0.999383       0.998690       0.999235     
   1.00000       0.997806       0.999999       0.999978       0.999988       0.999995       0.999998       0.999838       0.999962       0.998535     
  0.996935       0.974405       0.999997        1.00000       0.838276       0.986901       0.996212       0.996335       0.999587       0.998963     
  0.999453        1.00000       0.998670       0.999999       0.999987       0.999993       0.999997       0.999999       0.997917       0.999907     
  0.999070       0.997993       0.979818       0.999998        1.00000       0.823419       0.984896       0.995847       0.996118       0.999549     
  0.998857       0.999406        1.00000       0.998234       0.999999       0.999982       0.999990       0.999996       0.999999       0.999453     
  0.999946       0.998910       0.997471       0.977419       0.999997        1.00000     
 
  0.669610       0.968482       0.990938       0.991289       0.998457       0.997848       0.998493       0.999999       0.992744       0.999996     
  0.999938       0.999968       0.999984       0.999991       0.999517       0.999858       0.996364       0.993967       0.956859       0.999994     
  0.999999       0.705625       0.972585       0.991839       0.992001       0.998672       0.998037       0.998645       0.999999       0.994382     
  0.999997       0.999952       0.999976       0.999988       0.999994       0.999873       0.999914       0.996837       0.994580       0.961429     
  0.999995       0.999999       0.751131       0.977665       0.993356       0.993325       0.999018       0.998318       0.998905        1.00000     
  0.995851       0.999998       0.999965       0.999983       0.999992       0.999996       0.998278       0.999871       0.997680       0.995814     
  0.967721       0.999996       0.999999       0.756259       0.978108       0.993412       0.993425       0.999038       0.998355       0.998926     
   1.00000       0.996498       0.999998       0.999966       0.999983       0.999992       0.999996       0.999838       0.999942       0.997678     
  0.995725       0.968122       0.999996       0.999999       0.810008       0.984083       0.995310       0.995331       0.999417       0.998745     
  0.999274        1.00000       0.997819       0.999999       0.999981       0.999990       0.999996       0.999998       0.997484       0.999882     
  0.998686       0.997384       0.976074       0.999998        1.00000       0.784215       0.980843       0.994510       0.994645       0.999288     
  0.998557       0.999139        1.00000       0.997011       0.999999       0.999972       0.999985       0.999993       0.999997       0.999318     
  0.999924       0.998276       0.996493       0.971840       0.999996        1.00000     
 
  0.597873       0.959968       0.988615       0.989631       0.997879       0.997391       0.998115       0.999999       0.989392       0.999994     
  0.999911       0.999957       0.999977       0.999986       0.999340       0.999779       0.995101       0.992300       0.946474       0.999992     
  0.999999       0.639997       0.965117       0.989584       0.990266       0.998135       0.997604       0.998271       0.999999       0.991647     
  0.999995       0.999930       0.999966       0.999982       0.999990       0.999797       0.999870       0.995593       0.992897       0.952080     
  0.999993       0.999999       0.692833       0.971105       0.991517       0.991671       0.998581       0.997947       0.998576       0.999999     
  0.993194       0.999997       0.999948       0.999976       0.999988       0.999992       0.998195       0.999827       0.996690       0.994440     
  0.959813       0.999995       0.999999       0.702565       0.972290       0.991471       0.991680       0.998603       0.997979       0.998585     
  0.999999       0.994679       0.999997       0.999951       0.999976       0.999988       0.999994       0.999827       0.999913       0.996599     
  0.994242       0.960535       0.999994       0.999999       0.774693       0.980359       0.994258       0.994199       0.999198       0.998503     
  0.999067        1.00000       0.996538       0.999998       0.999973       0.999987       0.999994       0.999996       0.997051       0.999850     
  0.998195       0.996631       0.971489       0.999997        1.00000       0.730547       0.974997       0.992688       0.992808       0.998879     
  0.998184       0.998798        1.00000       0.994864       0.999998       0.999956       0.999978       0.999989       0.999995       0.999204     
  0.999888       0.997295       0.995117       0.964352       0.999995       0.999999     
 
  0.518026       0.949683       0.985963       0.987994       0.997179       0.996846       0.997702       0.999998       0.985301       0.999990     
  0.999873       0.999943       0.999969       0.999978       0.999095       0.999649       0.993715       0.990513       0.933862       0.999989     
  0.999998       0.564953       0.956026       0.986946       0.988546       0.997475       0.997085       0.997858       0.999999       0.988165     
  0.999993       0.999902       0.999954       0.999975       0.999983       0.999637       0.999805       0.994188       0.991008       0.940707     
  0.999991       0.999999       0.625610       0.963167       0.989442       0.990142       0.998044       0.997532       0.998228       0.999999     
  0.989671       0.999994       0.999925       0.999967       0.999983       0.999987       0.998175       0.999757       0.995566       0.992945     
  0.950410       0.999993       0.999999       0.639114       0.965068       0.989186       0.989969       0.998068       0.997548       0.998213     
  0.999999       0.992247       0.999995       0.999931       0.999968       0.999983       0.999990       0.999776       0.999872       0.995316     
  0.992504       0.951343       0.999993       0.999999       0.726753       0.974997       0.992964       0.992925       0.998905       0.998218     
  0.998825        1.00000       0.994511       0.999997       0.999961       0.999982       0.999991       0.999994       0.996629       0.999805     
  0.997554       0.995675       0.965363       0.999996       0.999999       0.671261       0.968288       0.990652       0.991127       0.998379     
  0.997790       0.998445       0.999999       0.992010       0.999996       0.999935       0.999969       0.999984       0.999991       0.999103     
  0.999837       0.996145       0.993589       0.955987       0.999993       0.999999     
 
  0.432897       0.937334       0.982969       0.986271       0.996332       0.996185       0.997246       0.999998       0.980493       0.999986     
  0.999823       0.999926       0.999960       0.999967       0.998781       0.999435       0.992246       0.988670       0.918485       0.999985     
  0.999997       0.482146       0.945008       0.983907       0.986753       0.996673       0.996451       0.997399       0.999998       0.983953     
  0.999989       0.999865       0.999940       0.999967       0.999974       0.999389       0.999711       0.992688       0.988976       0.926807     
  0.999988       0.999998       0.551827       0.953779       0.987200       0.988736       0.997410       0.997063       0.997865       0.999999     
  0.985492       0.999991       0.999895       0.999957       0.999976       0.999979       0.998135       0.999640       0.994399       0.991440     
  0.939364       0.999990       0.999999       0.565814       0.956201       0.986505       0.988272       0.997415       0.997030       0.997804     
  0.999999       0.989113       0.999993       0.999906       0.999957       0.999976       0.999985       0.999651       0.999814       0.993865     
  0.990539       0.940120       0.999990       0.999999       0.668192       0.968093       0.991553       0.991730       0.998553       0.997918     
  0.998579       0.999999       0.991710       0.999996       0.999944       0.999976       0.999988       0.999990       0.996290       0.999739     
  0.996843       0.994642       0.957808       0.999994       0.999999       0.603167       0.960177       0.988248       0.989475       0.997745     
  0.997316       0.998049       0.999999       0.988379       0.999993       0.999907       0.999958       0.999978       0.999984       0.998970     
  0.999759       0.994802       0.991849       0.945948       0.999991       0.999999     
 
  0.346537       0.922624       0.979572       0.984337       0.995299       0.995381       0.996725       0.999996       0.974979       0.999979     
  0.999756       0.999906       0.999950       0.999952       0.998411       0.999100       0.990684       0.986777       0.899594       0.999980     
  0.999996       0.395004       0.931740       0.980459       0.984784       0.995706       0.995679       0.996882       0.999997       0.979024     
  0.999984       0.999817       0.999922       0.999957       0.999962       0.999060       0.999575       0.991158       0.986869       0.909759     
  0.999984       0.999997       0.470635       0.942297       0.984689       0.987297       0.996640       0.996499       0.997467       0.999998     
  0.980692       0.999987       0.999858       0.999944       0.999969       0.999968       0.998035       0.999451       0.993171       0.989900     
  0.925706       0.999987       0.999998       0.483658       0.945336       0.983366       0.986463       0.996615       0.996388       0.997343     
  0.999998       0.985207       0.999990       0.999874       0.999943       0.999968       0.999977       0.999446       0.999732       0.992293     
  0.988380       0.926276       0.999987       0.999998       0.604812       0.960192       0.990102       0.990672       0.998154       0.997607     
  0.998335       0.999999       0.988372       0.999994       0.999923       0.999968       0.999984       0.999986       0.996011       0.999647     
  0.996130       0.993633       0.949148       0.999993       0.999999       0.524926       0.950084       0.985385       0.987759       0.996934     
  0.996720       0.997593       0.999998       0.983885       0.999989       0.999868       0.999944       0.999970       0.999974       0.998788     
  0.999631       0.993275       0.989899       0.933493       0.999987       0.999998     
 
  0.261542       0.904737       0.975556       0.982008       0.993988       0.994374       0.996092       0.999994       0.968441       0.999971     
  0.999667       0.999882       0.999938       0.999930       0.997981       0.998566       0.988923       0.984754       0.875481       0.999974     
  0.999995       0.308471       0.915923       0.976563       0.982538       0.994539       0.994747       0.996288       0.999995       0.973316     
  0.999977       0.999757       0.999901       0.999945       0.999944       0.998667       0.999381       0.989622       0.984712       0.888774     
  0.999979       0.999997       0.385382       0.928402       0.981841       0.985719       0.995701       0.995816       0.997017       0.999997     
  0.975345       0.999982       0.999811       0.999928       0.999960       0.999953       0.997862       0.999164       0.991872       0.988317     
  0.908625       0.999983       0.999997       0.395743       0.932103       0.979709       0.984391       0.995632       0.995585       0.996809     
  0.999997       0.980464       0.999985       0.999831       0.999926       0.999958       0.999965       0.999158       0.999614       0.990651     
  0.986067       0.909090       0.999984       0.999998       0.532579       0.950489       0.988433       0.989590       0.997656       0.997239     
  0.998062       0.999999       0.984428       0.999992       0.999896       0.999959       0.999979       0.999979       0.995745       0.999510     
  0.995339       0.992549       0.938228       0.999990       0.999998       0.438579       0.937552       0.982057       0.985900       0.995919     
  0.995973       0.997069       0.999998       0.978604       0.999983       0.999812       0.999926       0.999959       0.999960       0.998541     
  0.999415       0.991622       0.987820       0.917938       0.999983       0.999997     
 
  0.186278       0.883947       0.970938       0.979268       0.992388       0.993167       0.995338       0.999990       0.960901       0.999960     
  0.999556       0.999853       0.999925       0.999902       0.997515       0.997794       0.986954       0.982621       0.845602       0.999966     
  0.999993       0.228277       0.897356       0.972152       0.979932       0.993124       0.993634       0.995590       0.999992       0.966692     
  0.999969       0.999684       0.999877       0.999932       0.999921       0.998234       0.999105       0.988063       0.982490       0.862976     
  0.999973       0.999995       0.301058       0.911882       0.978593       0.983917       0.994576       0.994997       0.996502       0.999995     
  0.969512       0.999976       0.999755       0.999910       0.999951       0.999935       0.997622       0.998758       0.990489       0.986666     
  0.887204       0.999978       0.999996       0.305822       0.915873       0.975405       0.981892       0.994404       0.994574       0.996165     
  0.999995       0.974767       0.999979       0.999773       0.999905       0.999945       0.999948       0.998793       0.999445       0.988950     
  0.983586       0.887292       0.999979       0.999997       0.453353       0.938688       0.986493       0.988437       0.997043       0.996793     
  0.997753       0.999998       0.980059       0.999989       0.999861       0.999948       0.999973       0.999970       0.995492       0.999307     
  0.994455       0.991381       0.924359       0.999987       0.999998       0.348360       0.922128       0.978249       0.983789       0.994675     
  0.995051       0.996464       0.999996       0.972635       0.999975       0.999736       0.999903       0.999947       0.999940       0.998216     
  0.999056       0.989871       0.985673       0.898328       0.999978       0.999996     
 
  0.127164       0.861178       0.965871       0.976214       0.990570       0.991815       0.994486       0.999983       0.952579       0.999948     
  0.999427       0.999821       0.999912       0.999869       0.997033       0.996836       0.984863       0.980425       0.810602       0.999956     
  0.999990       0.159316       0.875874       0.967131       0.976900       0.991418       0.992322       0.994762       0.999987       0.958979     
  0.999958       0.999597       0.999848       0.999918       0.999890       0.997784       0.998721       0.986435       0.980158       0.831386     
  0.999966       0.999994       0.223123       0.892589       0.974896       0.981838       0.993266       0.994035       0.995915       0.999992     
  0.963182       0.999969       0.999687       0.999887       0.999940       0.999913       0.997323       0.998219       0.989004       0.984917     
  0.860389       0.999971       0.999995       0.221206       0.896333       0.970407       0.978888       0.992880       0.993334       0.995384     
  0.999992       0.968020       0.999970       0.999698       0.999879       0.999931       0.999924       0.998375       0.999203       0.987213     
  0.980964       0.859753       0.999973       0.999996       0.370729       0.924544       0.984229       0.987156       0.996303       0.996250     
  0.997401       0.999997       0.975375       0.999986       0.999817       0.999934       0.999967       0.999960       0.995248       0.999015     
  0.993464       0.990116       0.906740       0.999983       0.999997       0.260462       0.903437       0.973882       0.981315       0.993167     
  0.993932       0.995756       0.999994       0.965943       0.999965       0.999636       0.999875       0.999933       0.999914       0.997811     
  0.998490       0.987973       0.983444       0.873405       0.999970       0.999994     
 
  0.827076E-001  0.835790       0.960161       0.972752       0.988487       0.990281       0.993507       0.999974       0.943059       0.999933     
  0.999276       0.999784       0.999898       0.999829       0.996500       0.995704       0.982609       0.978059       0.769039       0.999945     
  0.999987       0.104864       0.851443       0.961442       0.973418       0.989409       0.990805       0.993793       0.999980       0.950068     
  0.999946       0.999493       0.999816       0.999902       0.999853       0.997329       0.998204       0.984698       0.977678       0.793195     
  0.999957       0.999992       0.156409       0.870425       0.970710       0.979455       0.991778       0.992930       0.995253       0.999987     
  0.956258       0.999962       0.999608       0.999861       0.999929       0.999888       0.996979       0.997544       0.987407       0.983031     
  0.827097       0.999963       0.999993       0.150413       0.873801       0.964820       0.975448       0.991058       0.991891       0.994464     
  0.999987       0.960152       0.999958       0.999604       0.999848       0.999915       0.999892       0.997943       0.998873       0.985477     
  0.978280       0.826187       0.999965       0.999994       0.289391       0.907835       0.981588       0.985689       0.995432       0.995597     
  0.997003       0.999994       0.970332       0.999982       0.999764       0.999917       0.999960       0.999947       0.995006       0.998616     
  0.992353       0.988737       0.884396       0.999978       0.999996       0.181906       0.881238       0.968854       0.978390       0.991362     
  0.992598       0.994919       0.999990       0.958301       0.999953       0.999507       0.999841       0.999917       0.999881       0.997331     
  0.997660       0.985863       0.981090       0.841786       0.999960       0.999992     
 
  0.517160E-001  0.807809       0.953745       0.968862       0.986126       0.988553       0.992389       0.999936       0.932146       0.999851     
  0.999075       0.999724       0.999861       0.999763       0.995882       0.994424       0.980212       0.975461       0.720520       0.999904     
  0.999953       0.652390E-001  0.823874       0.954985       0.969452       0.987091       0.989074       0.992672       0.999968       0.939763     
  0.999931       0.999371       0.999778       0.999886       0.999807       0.996842       0.997527       0.982804       0.974991       0.747388     
  0.999947       0.999990       0.103874       0.845329       0.965985       0.976748       0.990112       0.991678       0.994504       0.999954     
  0.948571       0.999884       0.999488       0.999813       0.999894       0.999839       0.996572       0.996715       0.985669       0.980944     
  0.786338       0.999925       0.999959       0.962311E-001  0.848180       0.958597       0.971580       0.988940       0.990250       0.993403     
  0.999979       0.951109       0.999945       0.999488       0.999812       0.999898       0.999853       0.997504       0.998422       0.983685     
  0.975492       0.785683       0.999956       0.999992       0.214544       0.888383       0.978512       0.983981       0.994418       0.994815     
  0.996547       0.999972       0.964787       0.999926       0.999679       0.999884       0.999935       0.999917       0.994736       0.998074     
  0.991085       0.987198       0.856233       0.999950       0.999970       0.118169       0.855341       0.963070       0.974964       0.989243     
  0.991037       0.993935       0.999984       0.949497       0.999938       0.999346       0.999799       0.999900       0.999841       0.996784     
  0.996549       0.983502       0.978552       0.801997       0.999948       0.999989     
 
  0.314390E-001  0.777359       0.946599       0.964560       0.983507       0.986643       0.991143       0.999893       0.919837       0.999770     
  0.998853       0.999660       0.999824       0.999692       0.995198       0.993055       0.977728       0.972622       0.665134       0.999862     
  0.999920       0.386425E-001  0.792924       0.947642       0.964957       0.984466       0.987116       0.991393       0.999951       0.927912     
  0.999914       0.999228       0.999733       0.999867       0.999755       0.996298       0.996676       0.980709       0.972020       0.692899     
  0.999934       0.999987       0.658050E-001  0.817254       0.960683       0.973722       0.988276       0.990289       0.993676       0.999918     
  0.940010       0.999810       0.999356       0.999760       0.999859       0.999788       0.996125       0.995770       0.983822       0.978638     
  0.737356       0.999887       0.999926       0.580535E-001  0.819191       0.951601       0.967230       0.986526       0.988397       0.992192     
  0.999966       0.940749       0.999928       0.999347       0.999769       0.999879       0.999806       0.997030       0.997812       0.981752     
  0.972508       0.737023       0.999944       0.999990       0.150724       0.866079       0.974957       0.982001       0.993267       0.993907     
  0.996035       0.999948       0.958675       0.999872       0.999584       0.999847       0.999910       0.999885       0.994449       0.997401     
  0.989667       0.985486       0.821201       0.999922       0.999946       0.717259E-001  0.825690       0.956466       0.971025       0.986824     
  0.989253       0.992803       0.999973       0.939362       0.999920       0.999151       0.999749       0.999881       0.999794       0.996169     
  0.995191       0.980910       0.975775       0.752839       0.999932       0.999985     
 
  0.186694E-001  0.744525       0.938685       0.959847       0.980647       0.984554       0.989775       0.999845       0.906180       0.999691     
  0.998609       0.999591       0.999788       0.999616       0.994458       0.991611       0.975168       0.969499       0.603289       0.999819     
  0.999888       0.223447E-001  0.759434       0.939550       0.960051       0.981635       0.984988       0.989999       0.999926       0.914899     
  0.999895       0.999065       0.999682       0.999848       0.999697       0.995706       0.995675       0.978453       0.968785       0.631049     
  0.999919       0.999983       0.402157E-001  0.786192       0.954750       0.970377       0.986269       0.988761       0.992767       0.999877     
  0.930426       0.999738       0.999210       0.999703       0.999825       0.999736       0.995635       0.994729       0.981885       0.976068     
  0.679773       0.999848       0.999895       0.334523E-001  0.786862       0.943769       0.962391       0.983846       0.986336       0.990840     
  0.999947       0.929053       0.999910       0.999180       0.999718       0.999859       0.999753       0.996498       0.997025       0.979634     
  0.969265       0.679675       0.999930       0.999986       0.100487       0.840830       0.970857       0.979711       0.991975       0.992868     
  0.995460       0.999922       0.951884       0.999819       0.999478       0.999806       0.999886       0.999853       0.994146       0.996604     
  0.988098       0.983559       0.778326       0.999894       0.999922       0.412007E-001  0.792235       0.948962       0.966567       0.984113     
  0.987247       0.991521       0.999955       0.927708       0.999900       0.998921       0.999689       0.999861       0.999740       0.995471     
  0.993651       0.978146       0.972695       0.693482       0.999913       0.999980     
 
  0.107358E-001  0.709355       0.929951       0.954720       0.977552       0.982287       0.988290       0.999789       0.891251       0.999613     
  0.998341       0.999515       0.999753       0.999537       0.993670       0.990068       0.972507       0.966044       0.535771       0.999774     
  0.999858       0.126549E-001  0.723779       0.930739       0.954777       0.978653       0.982712       0.988511       0.999868       0.901036     
  0.999809       0.998857       0.999608       0.999806       0.999617       0.995063       0.994540       0.976045       0.965234       0.563159     
  0.999874       0.999949       0.239271E-001  0.752186       0.948116       0.966705       0.984089       0.987091       0.991777       0.999830     
  0.919767       0.999669       0.999049       0.999640       0.999792       0.999683       0.995102       0.993596       0.979856       0.973177     
  0.613835       0.999809       0.999865       0.186298E-001  0.751311       0.935047       0.957061       0.980932       0.984068       0.989350     
  0.999889       0.916086       0.999806       0.998951       0.999638       0.999810       0.999669       0.995879       0.996028       0.977277     
  0.965677       0.613773       0.999879       0.999944       0.640114E-001  0.812612       0.966136       0.977075       0.990538       0.991692     
  0.994815       0.999892       0.944313       0.999769       0.999359       0.999761       0.999861       0.999819       0.993823       0.995695     
  0.986379       0.981370       0.726987       0.999865       0.999900       0.227116E-001  0.754970       0.940455       0.961570       0.981106     
  0.985002       0.990080       0.999894       0.914387       0.999781       0.998616       0.999593       0.999808       0.999651       0.994647     
  0.991965       0.975245       0.969208       0.623732       0.999850       0.999929     
 
  0.583002E-002  0.671987       0.920355       0.949180       0.974235       0.979845       0.986696       0.999724       0.875176       0.999536     
  0.998049       0.999433       0.999717       0.999454       0.992833       0.988393       0.969708       0.962204       0.464012       0.999728     
  0.999827       0.680715E-002  0.685528       0.921037       0.949069       0.975505       0.980269       0.986926       0.999801       0.886326     
  0.999724       0.998629       0.999527       0.999765       0.999534       0.994381       0.993281       0.973465       0.961279       0.489578     
  0.999828       0.999916       0.137974E-001  0.715278       0.940661       0.962657       0.981729       0.985264       0.990699       0.999775     
  0.908055       0.999602       0.998870       0.999570       0.999759       0.999628       0.994533       0.992357       0.977691       0.969884     
  0.540485       0.999768       0.999836       0.997059E-002  0.712584       0.925370       0.951245       0.977818       0.981608       0.987747     
  0.999822       0.902035       0.999706       0.998697       0.999550       0.999761       0.999583       0.995217       0.994877       0.974720     
  0.961699       0.540107       0.999826       0.999904       0.393509E-001  0.781426       0.960720       0.974070       0.988954       0.990374     
  0.994092       0.999856       0.935893       0.999720       0.999226       0.999711       0.999836       0.999784       0.993466       0.994672     
  0.984501       0.978866       0.667048       0.999835       0.999877       0.119993E-001  0.713981       0.930867       0.956045       0.977826     
  0.982532       0.988500       0.999823       0.899507       0.999666       0.998274       0.999486       0.999755       0.999558       0.993737     
  0.990180       0.972259       0.965265       0.544520       0.999784       0.999880     
 
  0.283254E-002  0.632620       0.909856       0.943231       0.970714       0.977234       0.984999       0.999649       0.858120       0.999459     
  0.997732       0.999344       0.999682       0.999368       0.991947       0.986549       0.966724       0.957923       0.390070       0.999679     
  0.999797       0.331091E-002  0.644877       0.910376       0.942914       0.972199       0.977660       0.985250       0.999723       0.870880     
  0.999642       0.998379       0.999438       0.999724       0.999451       0.993656       0.991883       0.970689       0.956852       0.412425     
  0.999780       0.999884       0.753096E-002  0.675616       0.932246       0.958167       0.979189       0.983264       0.989524       0.999709     
  0.895352       0.999535       0.998670       0.999493       0.999725       0.999571       0.993930       0.990994       0.975345       0.966100     
  0.461626       0.999725       0.999807       0.495259E-002  0.670717       0.914637       0.944926       0.974517       0.978955       0.986038     
  0.999743       0.887050       0.999608       0.998416       0.999452       0.999713       0.999496       0.994509       0.993575       0.971949     
  0.957240       0.460206       0.999771       0.999864       0.234751E-001  0.747243       0.954517       0.970670       0.987218       0.988903     
  0.993285       0.999813       0.926565       0.999670       0.999076       0.999654       0.999811       0.999748       0.993067       0.993524     
  0.982451       0.975984       0.598874       0.999804       0.999855       0.586801E-002  0.669336       0.920042       0.949941       0.974272     
  0.979825       0.986781       0.999738       0.883170       0.999552       0.997894       0.999366       0.999703       0.999462       0.992751     
  0.988239       0.969110       0.960746       0.457893       0.999716       0.999832     
 
  0.111044E-002  0.591501       0.898407       0.936875       0.967009       0.974460       0.983211       0.999563       0.840283       0.999382     
  0.997390       0.999246       0.999647       0.999280       0.991013       0.984503       0.963505       0.953136       0.316528       0.999628     
  0.999767       0.129424E-002  0.602066       0.898671       0.936298       0.968741       0.974882       0.983485       0.999632       0.854806     
  0.999560       0.998104       0.999340       0.999683       0.999367       0.992883       0.990322       0.967676       0.951875       0.334526     
  0.999730       0.999852       0.370109E-002  0.633447       0.922760       0.953197       0.976464       0.981081       0.988247       0.999631     
  0.881678       0.999468       0.998448       0.999406       0.999691       0.999513       0.993286       0.989495       0.972792       0.961742     
  0.380154       0.999679       0.999778       0.209790E-002  0.625782       0.902668       0.938028       0.971029       0.976092       0.984217     
  0.999650       0.871248       0.999511       0.998107       0.999343       0.999664       0.999407       0.993745       0.992093       0.968902     
  0.952170       0.376569       0.999714       0.999826       0.135100E-001  0.710114       0.947439       0.966854       0.985327       0.987272     
  0.992389       0.999762       0.916296       0.999622       0.998911       0.999591       0.999785       0.999710       0.992624       0.992251     
  0.980226       0.972655       0.523683       0.999771       0.999834       0.243828E-002  0.621334       0.907771       0.943167       0.970433     
  0.976856       0.984910       0.999636       0.865490       0.999439       0.997469       0.999231       0.999650       0.999363       0.991683     
  0.986059       0.965672       0.955506       0.367551       0.999642       0.999784     
 
  0.333405E-003  0.548984       0.885969       0.930120       0.963151       0.971532       0.981341       0.999465       0.821898       0.999306     
  0.997023       0.999139       0.999613       0.999191       0.990030       0.982239       0.960017       0.947776       0.246392       0.999573     
  0.999737       0.336487E-003  0.557411       0.885825       0.929202       0.965117       0.971926       0.981626       0.999527       0.838080     
  0.999479       0.997803       0.999233       0.999642       0.999282       0.992059       0.988591       0.964408       0.946261       0.259299     
  0.999676       0.999820       0.146453E-002  0.589058       0.912071       0.947707       0.973530       0.978697       0.986860       0.999540     
  0.866960       0.999402       0.998201       0.999310       0.999657       0.999453       0.992597       0.987843       0.970002       0.956719     
  0.299652       0.999631       0.999750       0.590131E-003  0.577454       0.889108       0.930385       0.967320       0.972965       0.982256     
  0.999538       0.854632       0.999414       0.997760       0.999219       0.999615       0.999318       0.992899       0.990358       0.965449     
  0.946273       0.291953       0.999653       0.999787       0.732497E-002  0.670157       0.939393       0.962604       0.983274       0.985473     
  0.991404       0.999701       0.905068       0.999573       0.998727       0.999521       0.999759       0.999671       0.992134       0.990857     
  0.977828       0.968806       0.443575       0.999735       0.999812       0.679550E-003  0.570507       0.893861       0.935643       0.966304     
  0.973605       0.982878       0.999515       0.846586       0.999325       0.996994       0.999079       0.999597       0.999260       0.990524     
  0.983557       0.961828       0.949403       0.278697       0.999564       0.999735     
 
  0.104864E-003  0.505528       0.872508       0.922980       0.959169       0.968459       0.979403       0.999353       0.803194       0.999228     
  0.996630       0.999023       0.999578       0.999101       0.989001       0.979744       0.956240       0.941772       0.182726       0.999515     
  0.999706       0.885818E-004  0.511407       0.871742       0.921613       0.961309       0.968781       0.979671       0.999405       0.820674     
  0.999397       0.997475       0.999114       0.999600       0.999196       0.991185       0.986691       0.960877       0.939924       0.190487     
  0.999619       0.999789       0.433903E-003  0.542874       0.900047       0.941654       0.970365       0.976094       0.985353       0.999433     
  0.851138       0.999334       0.997927       0.999202       0.999622       0.999390       0.991857       0.986016       0.966938       0.950931     
  0.224198       0.999579       0.999722       0.926355E-004  0.527072       0.874001       0.922076       0.963401       0.969600       0.980172     
  0.999406       0.837265       0.999317       0.997380       0.999081       0.999565       0.999227       0.991978       0.988397       0.961629     
  0.939513       0.212808       0.999587       0.999749       0.357359E-002  0.627551       0.930271       0.957892       0.981051       0.983494     
  0.990324       0.999628       0.892857       0.999523       0.998522       0.999441       0.999732       0.999631       0.991596       0.989327     
  0.975235       0.964351       0.361494       0.999697       0.999790       0.843790E-004  0.517493       0.878119       0.927310       0.961857     
  0.970049       0.980672       0.999370       0.826462       0.999209       0.996468       0.998908       0.999543       0.999154       0.989267     
  0.980664       0.957470       0.942287       0.197109       0.999479       0.999687     
 
  0.644671E-004  0.461630       0.857996       0.915474       0.955104       0.965253       0.977410       0.999226       0.784440       0.999151     
  0.996211       0.998897       0.999544       0.999012       0.987924       0.976992       0.952139       0.935052       0.128103       0.999452     
  0.999676       0.507194E-004  0.464650       0.856336       0.913520       0.957311       0.965440       0.977617       0.999267       0.802614     
  0.999315       0.997117       0.998983       0.999559       0.999110       0.990261       0.984606       0.957059       0.932773       0.131383     
  0.999558       0.999758       0.155563E-003  0.495482       0.886558       0.935003       0.966956       0.973260       0.983719       0.999310     
  0.834215       0.999265       0.997624       0.999081       0.999586       0.999324       0.991059       0.983991       0.963558       0.944280     
  0.157754       0.999523       0.999693       0.366890E-004  0.476064       0.857376       0.913154       0.959239       0.965998       0.977961     
  0.999254       0.818940       0.999219       0.996971       0.998929       0.999514       0.999136       0.990994       0.986244       0.957488     
  0.931874       0.144921       0.999517       0.999711       0.140670E-002  0.582528       0.919928       0.952680       0.978636       0.981319     
  0.989143       0.999543       0.879569       0.999473       0.998296       0.999351       0.999704       0.999589       0.991009       0.987629     
  0.972403       0.959183       0.281044       0.999656       0.999769       0.370089E-004  0.463161       0.860363       0.918120       0.957066     
  0.966163       0.978280       0.999199       0.805109       0.999091       0.995888       0.998715       0.999488       0.999045       0.987903     
  0.977357       0.952539       0.934008       0.128152       0.999387       0.999637     
 
  0.642717E-004  0.417842       0.842414       0.907627       0.951008       0.961932       0.975382       0.999085       0.765974       0.999074     
  0.995766       0.998759       0.999510       0.998926       0.986799       0.973958       0.947683       0.927539       0.841620E-001  0.999385     
  0.999645       0.468041E-004  0.417847       0.839517       0.904903       0.953132       0.961897       0.975464       0.999110       0.784029     
  0.999232       0.996729       0.998839       0.999517       0.999022       0.989288       0.982319       0.952918       0.924708       0.842070E-001
  0.999492       0.999726       0.114539E-003  0.447554       0.871469       0.927708       0.963293       0.970178       0.981949       0.999169     
  0.816229       0.999195       0.997286       0.998946       0.999548       0.999256       0.990200       0.981750       0.959823       0.936662     
  0.103312       0.999462       0.999664       0.352146E-004  0.424625       0.838898       0.903477       0.954742       0.962094       0.975580     
  0.999078       0.799305       0.999120       0.996524       0.998759       0.999463       0.999040       0.989930       0.983845       0.952933     
  0.923145       0.906318E-001  0.999442       0.999673       0.309216E-003  0.533626       0.907727       0.946700       0.975896       0.978833     
  0.987799       0.999439       0.864471       0.999421       0.998037       0.999246       0.999674       0.999543       0.990345       0.985659     
  0.969163       0.952937       0.203563       0.999610       0.999746       0.365467E-004  0.407329       0.839961       0.907810       0.951795     
  0.961834       0.975636       0.998994       0.782075       0.998970       0.995238       0.998494       0.999431       0.998929       0.986387     
  0.973497       0.946827       0.924175       0.742529E-001  0.999285       0.999586     
 
  0.626211E-004  0.374698       0.825714       0.899451       0.946917       0.958503       0.973329       0.998928       0.748025       0.998996     
  0.995295       0.998608       0.999476       0.998843       0.985620       0.970623       0.942848       0.919143       0.512826E-001  0.999313     
  0.999613       0.420365E-004  0.371705       0.821171       0.895724       0.948791       0.958148       0.973215       0.998950       0.765105     
  0.999193       0.996325       0.998691       0.999489       0.998948       0.988276       0.979827       0.948426       0.915631       0.495511E-001
  0.999440       0.999714       0.114538E-003  0.399811       0.854648       0.919728       0.959371       0.966835       0.980037       0.999009     
  0.797246       0.999123       0.996913       0.998794       0.999509       0.999185       0.989274       0.979274       0.955694       0.927972     
  0.622137E-001  0.999396       0.999634       0.334029E-004  0.373753       0.818461       0.893023       0.949945       0.957892       0.973042     
  0.998898       0.778678       0.999075       0.996061       0.998584       0.999428       0.998959       0.988801       0.981180       0.947920     
  0.913209       0.512537E-001  0.999383       0.999660       0.144377E-003  0.483320       0.893903       0.940122       0.972905       0.976105     
  0.986331       0.999319       0.848010       0.999367       0.997750       0.999127       0.999643       0.999494       0.989624       0.983455     
  0.965586       0.945680       0.136908       0.999560       0.999723       0.359258E-004  0.350274       0.816170       0.896100       0.945923     
  0.956948       0.972683       0.998773       0.757001       0.998909       0.994524       0.998253       0.999393       0.998826       0.984691     
  0.968923       0.940104       0.912313       0.366559E-001  0.999197       0.999564     
 
  0.592417E-004  0.332144       0.807574       0.890834       0.942801       0.954921       0.971234       0.998751       0.730521       0.998918     
  0.994785       0.998440       0.999442       0.998763       0.984366       0.966907       0.937526       0.909629       0.283581E-001  0.999235     
  0.999581       0.377542E-004  0.326978       0.801224       0.885966       0.944297       0.954184       0.970868       0.998769       0.745996     
  0.999150       0.995881       0.998526       0.999460       0.998874       0.987209       0.977100       0.943536       0.905434       0.264087E-001
  0.999380       0.999702       0.112564E-003  0.353012       0.835993       0.911044       0.955197       0.963224       0.977982       0.998828     
  0.777422       0.999049       0.996497       0.998624       0.999469       0.999111       0.988270       0.976524       0.951125       0.918107     
  0.339637E-001  0.999324       0.999603       0.275923E-004  0.324433       0.795950       0.881757       0.944868       0.953378       0.970340     
  0.998691       0.757349       0.999026       0.995554       0.998386       0.999392       0.998875       0.987583       0.978191       0.942367     
  0.901906       0.257284E-001  0.999316       0.999646       0.144376E-003  0.434347       0.878858       0.933140       0.969774       0.973225     
  0.984785       0.999186       0.830894       0.999313       0.997440       0.998996       0.999611       0.999444       0.988864       0.981064     
  0.961743       0.937612       0.860621E-001  0.999506       0.999700       0.304419E-004  0.296855       0.790224       0.883661       0.939789     
  0.951772       0.969584       0.998519       0.731512       0.998842       0.993756       0.997983       0.999353       0.998721       0.982875     
  0.963842       0.932691       0.898889       0.155720E-001  0.999098       0.999539     
 
  0.540329E-004  0.290753       0.787854       0.881760       0.938714       0.951189       0.969109       0.998552       0.713778       0.998838     
  0.994228       0.998252       0.999408       0.998688       0.983026       0.962744       0.931639       0.898826       0.139199E-001  0.999148     
  0.999547       0.338519E-004  0.284355       0.779628       0.875630       0.939684       0.950010       0.968431       0.998566       0.726964     
  0.999105       0.995392       0.998342       0.999430       0.998800       0.986087       0.974108       0.938209       0.894024       0.125354E-001
  0.999313       0.999687       0.105172E-003  0.307951       0.815434       0.901652       0.950800       0.959348       0.975793       0.998627     
  0.757052       0.998972       0.996029       0.998433       0.999427       0.999035       0.987187       0.973449       0.946057       0.906973     
  0.165284E-001  0.999244       0.999572       0.240854E-004  0.277645       0.771306       0.869685       0.939523       0.948549       0.967480     
  0.998455       0.735495       0.998973       0.994998       0.998164       0.999352       0.998789       0.986270       0.974835       0.936224     
  0.889123       0.112137E-001  0.999240       0.999630       0.144375E-003  0.385825       0.861929       0.925425       0.966380       0.970071     
  0.983093       0.999036       0.812603       0.999258       0.997083       0.998849       0.999577       0.999392       0.988032       0.978352     
  0.957420       0.928388       0.493401E-001  0.999446       0.999676       0.259044E-004  0.248463       0.762414       0.870647       0.933488     
  0.946366       0.966381       0.998235       0.706183       0.998771       0.992936       0.997685       0.999312       0.998616       0.980950     
  0.958283       0.924648       0.883963       0.560313E-002  0.998988       0.999512     
 
  0.481175E-004  0.252459       0.767157       0.872535       0.934816       0.947435       0.967034       0.998342       0.698472       0.998758     
  0.993637       0.998047       0.999373       0.998620       0.981638       0.958239       0.925355       0.887008       0.609690E-002  0.999055     
  0.999512       0.298274E-004  0.244479       0.756372       0.864729       0.935017       0.945640       0.965924       0.998344       0.708445     
  0.999055       0.994848       0.998135       0.999398       0.998729       0.984904       0.970808       0.932400       0.881317       0.519381E-002
  0.999237       0.999671       0.935012E-004  0.265360       0.792906       0.891544       0.946211       0.955207       0.973476       0.998406     
  0.736426       0.998892       0.995499       0.998216       0.999383       0.998958       0.986024       0.970000       0.940435       0.894468     
  0.702287E-002  0.999156       0.999539       0.208300E-004  0.234219       0.744493       0.856821       0.933917       0.943403       0.964467     
  0.998191       0.713251       0.998915       0.994385       0.997912       0.999310       0.998701       0.984851       0.971025       0.929416     
  0.874746       0.412499E-002  0.999153       0.999612       0.139977E-003  0.338563       0.842953       0.916909       0.962712       0.966621     
  0.981243       0.998870       0.793222       0.999199       0.996674       0.998682       0.999542       0.999336       0.987121       0.975284     
  0.952561       0.917901       0.254071E-001  0.999380       0.999651       0.217301E-004  0.204498       0.732030       0.856729       0.926904     
  0.940593       0.963007       0.997915       0.680741       0.998693       0.992029       0.997347       0.999268       0.998509       0.978860     
  0.952057       0.915725       0.867034       0.160273E-002  0.998862       0.999481     
 
  0.422062E-004  0.217501       0.745449       0.863139       0.931079       0.943643       0.965000       0.998124       0.684428       0.998677     
  0.993009       0.997824       0.999340       0.998559       0.980198       0.953404       0.918685       0.874130       0.234251E-002  0.998955     
  0.999476       0.259156E-004  0.207847       0.731421       0.853253       0.930324       0.941069       0.963352       0.998092       0.690649     
  0.998963       0.994223       0.997893       0.999352       0.998649       0.983643       0.967147       0.926054       0.867210       0.183147E-002
  0.999135       0.999634       0.807366E-004  0.225865       0.768348       0.880707       0.941438       0.950795       0.971033       0.998168     
  0.715692       0.998808       0.994901       0.997971       0.999338       0.998881       0.984777       0.966144       0.934219       0.880487     
  0.253701E-002  0.999058       0.999503       0.178034E-004  0.194827       0.715513       0.843184       0.928071       0.937936       0.961305     
  0.997888       0.690861       0.998804       0.993688       0.997616       0.999248       0.998598       0.983300       0.966662       0.921856     
  0.858640       0.123544E-002  0.999034       0.999569       0.126832E-003  0.293366       0.821828       0.907571       0.958781       0.962870     
  0.979238       0.998690       0.773000       0.999137       0.996209       0.998493       0.999504       0.999277       0.986123       0.971824     
  0.947121       0.906042       0.115330E-001  0.999306       0.999625       0.179680E-004  0.165596       0.699075       0.841905       0.920064     
  0.934444       0.959463       0.997546       0.655455       0.998550       0.991000       0.996947       0.999201       0.998384       0.976583     
  0.945105       0.905866       0.847923       0.344009E-003  0.998695       0.999419     
 
  0.365618E-004  0.185617       0.722452       0.853465       0.927476       0.939770       0.962987       0.997897       0.671584       0.998596     
  0.992335       0.997579       0.999306       0.998503       0.978686       0.948182       0.911559       0.859955       0.772110E-003  0.998845     
  0.999439       0.222838E-004  0.174818       0.704760       0.841190       0.925591       0.936291       0.960713       0.997829       0.673502     
  0.998869       0.993528       0.997622       0.999305       0.998571       0.982307       0.963111       0.919159       0.851631       0.547963E-003
  0.999021       0.999596       0.684388E-004  0.189967       0.741734       0.869129       0.936485       0.946105       0.968465       0.997919     
  0.694947       0.998721       0.994230       0.997695       0.999290       0.998802       0.983437       0.961848       0.927371       0.864935     
  0.764239E-003  0.998948       0.999466       0.150612E-004  0.159927       0.684395       0.828766       0.922037       0.932154       0.958011     
  0.997569       0.668716       0.998690       0.992920       0.997282       0.999184       0.998495       0.981624       0.961728       0.913520     
  0.840703       0.304405E-003  0.998902       0.999525       0.110147E-003  0.250983       0.798486       0.897394       0.954606       0.958812     
  0.977079       0.998499       0.752188       0.999073       0.995688       0.998281       0.999464       0.999217       0.985029       0.967939     
  0.941058       0.892706       0.451405E-002  0.999224       0.999597       0.144864E-004  0.131045       0.662394       0.825660       0.912782     
  0.927710       0.955648       0.997144       0.629880       0.998399       0.989824       0.996481       0.999130       0.998257       0.974046     
  0.937166       0.894702       0.825721       0.585011E-004  0.998501       0.999352     
 
  0.313002E-004  0.156946       0.698190       0.843551       0.924018       0.935824       0.961008       0.997664       0.659985       0.998514     
  0.991614       0.997307       0.999272       0.998453       0.977089       0.942535       0.903963       0.844391       0.231965E-003  0.998725     
  0.999399       0.189657E-004  0.145544       0.676399       0.828532       0.920797       0.931290       0.958002       0.997558       0.656915     
  0.998774       0.992760       0.997322       0.999257       0.998497       0.980871       0.958623       0.911647       0.834493       0.156994E-003
  0.998896       0.999555       0.571998E-004  0.157959       0.713070       0.856801       0.931355       0.941130       0.965771       0.997661     
  0.674298       0.998631       0.993483       0.997384       0.999239       0.998723       0.981975       0.957040       0.919820       0.847720     
  0.203085E-003  0.998826       0.999426       0.125769E-004  0.129685       0.651124       0.813456       0.915816       0.926026       0.954570     
  0.997238       0.647036       0.998574       0.992071       0.996908       0.999117       0.998394       0.979804       0.956196       0.904346     
  0.820829       0.818712E-004  0.998755       0.999478       0.929184E-004  0.211420       0.772413       0.886164       0.950103       0.954359     
  0.974724       0.998299       0.730495       0.999006       0.995097       0.998038       0.999421       0.999153       0.983787       0.963473     
  0.934171       0.877527       0.145759E-002  0.999132       0.999568       0.111142E-004  0.100974       0.621423       0.807727       0.905057     
  0.920287       0.951539       0.996711       0.604431       0.998240       0.988460       0.995928       0.999054       0.998129       0.971150     
  0.927961       0.881919       0.799678       0.179377E-004  0.998276       0.999279     
 
  0.264041E-004  0.131493       0.672692       0.833444       0.920669       0.931799       0.959060       0.997429       0.649359       0.998432     
  0.990850       0.997008       0.999238       0.998408       0.975371       0.936406       0.895875       0.827342       0.683204E-004  0.998595     
  0.999358       0.159145E-004  0.120003       0.646385       0.815274       0.915936       0.926055       0.955219       0.997283       0.640892     
  0.998676       0.991914       0.996988       0.999209       0.998425       0.979283       0.953589       0.903437       0.815714       0.434726E-004
  0.998757       0.999512       0.470755E-004  0.129923       0.682397       0.843712       0.926064       0.935863       0.962955       0.997399     
  0.653912       0.998539       0.992655       0.997035       0.999186       0.998645       0.980347       0.951641       0.911488       0.828754     
  0.524910E-004  0.998691       0.999384       0.102770E-004  0.103977       0.615738       0.797141       0.909417       0.919517       0.950968     
  0.996902       0.626060       0.998455       0.991129       0.996489       0.999046       0.998294       0.977791       0.950033       0.894265     
  0.798929       0.214039E-004  0.998593       0.999429       0.763944E-004  0.174304       0.742532       0.873424       0.945124       0.949333     
  0.972085       0.998087       0.707449       0.998933       0.994408       0.997752       0.999374       0.999085       0.982264       0.958035     
  0.925973       0.859757       0.347267E-003  0.999024       0.999535       0.793315E-005  0.773645E-001  0.579682       0.789539       0.897557     
  0.912767       0.947479       0.996290       0.581445       0.998079       0.987009       0.995323       0.998977       0.998011       0.968049     
  0.918091       0.868432       0.771724       0.755156E-005  0.998030       0.999202     
 
  0.218964E-004  0.109169       0.645992       0.823172       0.917383       0.927687       0.957137       0.997195       0.639417       0.998350     
  0.990044       0.996678       0.999203       0.998366       0.973526       0.929736       0.887270       0.808714       0.256826E-004  0.998453     
  0.999314       0.131342E-004  0.980234E-001  0.614810       0.801415       0.911012       0.920582       0.952364       0.997009       0.625490     
  0.998576       0.990991       0.996618       0.999159       0.998356       0.977522       0.947913       0.894453       0.795220       0.187063E-004
  0.998604       0.999466       0.381027E-004  0.105758       0.649826       0.829869       0.920662       0.930313       0.960034       0.997138     
  0.634166       0.998444       0.991747       0.996647       0.999130       0.998567       0.978513       0.945521       0.902263       0.807956     
  0.189177E-004  0.998541       0.999339       0.804177E-005  0.817780E-001  0.577087       0.779194       0.902699       0.912389       0.947096     
  0.996556       0.605686       0.998330       0.990042       0.996004       0.998969       0.998195       0.975482       0.942917       0.882810     
  0.774016       0.119148E-004  0.998405       0.999376       0.623395E-004  0.142417       0.710694       0.859943       0.940042       0.944050     
  0.969341       0.997881       0.685119       0.998860       0.993658       0.997433       0.999324       0.999017       0.980509       0.951806     
  0.916822       0.840342       0.756614E-004  0.998904       0.999501       0.463054E-005  0.588122E-001  0.537291       0.770951       0.890155     
  0.905071       0.943415       0.995887       0.560262       0.997919       0.985471       0.994664       0.998898       0.997900       0.964705     
  0.907492       0.854172       0.741819       0.602930E-005  0.997763       0.999121     
 
  0.170520E-004  0.898034E-001  0.618133       0.812730       0.914133       0.923479       0.955233       0.996966       0.630014       0.998268     
  0.989199       0.996315       0.999167       0.998327       0.971544       0.922491       0.878130       0.788417       0.118327E-004  0.998299     
  0.999268       0.100540E-004  0.793223E-001  0.581805       0.786950       0.906018       0.914860       0.949437       0.996742       0.610699     
  0.998474       0.989988       0.996210       0.999107       0.998290       0.975549       0.941467       0.884594       0.772947       0.104195E-004
  0.998435       0.999418       0.285850E-004  0.852162E-001  0.615521       0.815282       0.915211       0.924491       0.957025       0.996884     
  0.615463       0.998348       0.990757       0.996215       0.999071       0.998493       0.976431       0.938572       0.892052       0.785267     
  0.945248E-005  0.998376       0.999292       0.528015E-005  0.633351E-001  0.536174       0.759942       0.895874       0.904776       0.943051     
  0.996218       0.586888       0.998202       0.988814       0.995451       0.998888       0.998102       0.972845       0.934764       0.870003     
  0.746383       0.973260E-005  0.998192       0.999318       0.521405E-004  0.115947       0.677819       0.846054       0.935043       0.938646     
  0.966575       0.997690       0.664487       0.998786       0.992863       0.997088       0.999273       0.998952       0.978556       0.945012     
  0.907010       0.819719       0.316877E-004  0.998775       0.999466       0.220396E-005  0.439123E-001  0.493415       0.751345       0.882598     
  0.896939       0.939208       0.995503       0.540149       0.997757       0.983803       0.993928       0.998814       0.997793       0.960985     
  0.895860       0.838720       0.709171       0.596228E-005  0.997467       0.999035     
 
  0.105655E-004  0.731569E-001  0.589185       0.802104       0.910918       0.919173       0.953349       0.996747       0.621164       0.998187     
  0.988315       0.995916       0.999131       0.998291       0.969408       0.914648       0.868438       0.766367       0.835051E-005  0.998131     
  0.999220       0.571009E-005  0.635491E-001  0.547543       0.771871       0.900948       0.908882       0.946437       0.996487       0.596527     
  0.998372       0.988910       0.995760       0.999054       0.998226       0.973323       0.934149       0.873781       0.748841       0.896979E-005
  0.998250       0.999367       0.157385E-004  0.679430E-001  0.579667       0.799942       0.909738       0.918394       0.953935       0.996642     
  0.597976       0.998251       0.989686       0.995737       0.999009       0.998421       0.974074       0.930804       0.880874       0.760632     
  0.793906E-005  0.998194       0.999241       0.235418E-005  0.488292E-001  0.495353       0.740317       0.889228       0.897026       0.939020     
  0.995911       0.570309       0.998075       0.987499       0.994854       0.998804       0.998018       0.969939       0.925845       0.856383     
  0.717388       0.971610E-005  0.997962       0.999258       0.430952E-004  0.934152E-001  0.642954       0.831285       0.929988       0.932936     
  0.963703       0.997513       0.645065       0.998712       0.991994       0.996704       0.999219       0.998890       0.976294       0.937386     
  0.896175       0.797161       0.197941E-004  0.998631       0.999428       0.109935E-005  0.315697E-001  0.446201       0.729552       0.874552     
  0.887911       0.934641       0.995134       0.520614       0.997586       0.981904       0.993065       0.998722       0.997688       0.956609     
  0.882502       0.821157       0.671921       0.596217E-005  0.997123       0.998940     
 
  0.525500E-005  0.589507E-001  0.559246       0.791283       0.907751       0.914771       0.951490       0.996542       0.613002       0.998108     
  0.987393       0.995478       0.999093       0.998257       0.967101       0.906189       0.858185       0.742489       0.790706E-005  0.997950     
  0.999170       0.258130E-005  0.503346E-001  0.512246       0.756181       0.895829       0.902648       0.943374       0.996250       0.583181     
  0.998269       0.987758       0.995266       0.998999       0.998166       0.970824       0.925965       0.862036       0.722856       0.896968E-005
  0.998046       0.999313       0.677682E-005  0.531861E-001  0.541414       0.783346       0.904092       0.911828       0.950674       0.996415     
  0.581346       0.998151       0.988501       0.995194       0.998941       0.998353       0.971308       0.921904       0.868318       0.733255     
  0.787351E-005  0.997988       0.999187       0.102002E-005  0.371311E-001  0.453962       0.719810       0.882492       0.888902       0.934870     
  0.995635       0.554979       0.997946       0.986067       0.994194       0.998717       0.997938       0.966657       0.915951       0.841652     
  0.686390       0.971596E-005  0.997707       0.999194       0.273345E-004  0.744635E-001  0.606281       0.815619       0.924896       0.926917     
  0.960728       0.997353       0.627018       0.998636       0.991047       0.996275       0.999161       0.998831       0.973665       0.928855     
  0.884256       0.772617       0.166662E-004  0.998471       0.999388       0.831697E-006  0.217614E-001  0.396836       0.705645       0.866133     
  0.878022       0.929759       0.994799       0.502337       0.997409       0.979774       0.992067       0.998620       0.997586       0.951470     
  0.867424       0.801541       0.630321       0.596207E-005  0.996727       0.998836     
 
  0.284482E-005  0.469078E-001  0.528440       0.780250       0.904652       0.910275       0.949661       0.996354       0.605700       0.998030     
  0.986433       0.994998       0.999054       0.998227       0.964604       0.897106       0.847366       0.716733       0.775194E-005  0.997753     
  0.999118       0.146916E-005  0.393339E-001  0.476185       0.739878       0.890700       0.896166       0.940261       0.996036       0.570939     
  0.998167       0.986533       0.994723       0.998941       0.998110       0.968018       0.916932       0.849389       0.694985       0.896958E-005
  0.997823       0.999256       0.395972E-005  0.410227E-001  0.501903       0.765790       0.898388       0.904914       0.947305       0.996213     
  0.565995       0.998051       0.987225       0.994593       0.998869       0.998287       0.968099       0.911918       0.854532       0.703727     
  0.787343E-005  0.997761       0.999130       0.673020E-006  0.276980E-001  0.412149       0.698264       0.875588       0.880323       0.930561     
  0.995390       0.540698       0.997815       0.984506       0.993465       0.998626       0.997863       0.962916       0.905042       0.825750     
  0.653228       0.971582E-005  0.997424       0.999125       0.120824E-004  0.585091E-001  0.567563       0.798842       0.919704       0.920499     
  0.957614       0.997212       0.610182       0.998560       0.990009       0.995794       0.999099       0.998775       0.970609       0.919339     
  0.871132       0.745731       0.166661E-004  0.998292       0.999344       0.770486E-006  0.147885E-001  0.350429       0.681754       0.858027     
  0.868117       0.924979       0.994529       0.486649       0.997238       0.977610       0.991015       0.998516       0.997496       0.945975     
  0.852036       0.781725       0.588368       0.596197E-005  0.996310       0.998731     
 
  0.192699E-005  0.367799E-001  0.496916       0.768984       0.901635       0.905685       0.947864       0.996185       0.599404       0.997954     
  0.985436       0.994471       0.999012       0.998200       0.961902       0.887396       0.835983       0.689080       0.775187E-005  0.997541     
  0.999062       0.102866E-005  0.302506E-001  0.439644       0.722942       0.885579       0.889430       0.937103       0.995847       0.559962     
  0.998065       0.985235       0.994129       0.998882       0.998059       0.964848       0.906970       0.835784       0.665253       0.896948E-005
  0.997580       0.999197       0.274225E-005  0.313376E-001  0.462602       0.747756       0.892744       0.897822       0.943909       0.996041     
  0.552137       0.997952       0.985895       0.993950       0.998794       0.998227       0.964519       0.901202       0.839986       0.672993     
  0.787335E-005  0.997518       0.999071       0.606203E-006  0.201914E-001  0.370427       0.675689       0.868506       0.871274       0.926091     
  0.995177       0.527505       0.997682       0.982816       0.992662       0.998530       0.997792       0.958674       0.893176       0.808751     
  0.618013       0.971569E-005  0.997112       0.999053       0.504626E-005  0.446973E-001  0.525182       0.780067       0.914160       0.913339     
  0.954205       0.997085       0.593949       0.998478       0.988817       0.995230       0.999030       0.998719       0.966924       0.908374     
  0.856167       0.715056       0.166660E-004  0.998082       0.999296       0.770481E-006  0.975085E-002  0.305976       0.657183       0.849893     
  0.857857       0.920129       0.994302       0.472562       0.997067       0.975348       0.989876       0.998407       0.997413       0.939982     
  0.835945       0.761209       0.545162       0.596187E-005  0.995860       0.998621     
 
  0.140900E-005  0.283498E-001  0.464846       0.757467       0.898695       0.900996       0.946097       0.996035       0.594160       0.997879     
  0.984402       0.993894       0.998969       0.998175       0.958985       0.877056       0.824042       0.659549       0.775179E-005  0.997311     
  0.999005       0.878017E-006  0.228360E-001  0.402928       0.705358       0.880461       0.882430       0.933899       0.995680       0.550281     
  0.997962       0.983864       0.993479       0.998820       0.998012       0.961262       0.896016       0.821185       0.633730       0.896939E-005
  0.997315       0.999134       0.244563E-005  0.234925E-001  0.422904       0.728802       0.886978       0.890358       0.940391       0.995891     
  0.539204       0.997852       0.984480       0.993245       0.998714       0.998170       0.960493       0.889618       0.824454       0.640417     
  0.787327E-005  0.997252       0.999009       0.575689E-006  0.143274E-001  0.329319       0.652123       0.861209       0.861736       0.921453     
  0.994993       0.515301       0.997546       0.980995       0.991780       0.998429       0.997724       0.953911       0.880428       0.790760     
  0.580921       0.971556E-005  0.996767       0.998975       0.348001E-005  0.336854E-001  0.482315       0.760452       0.908589       0.905870     
  0.950711       0.996979       0.579294       0.998396       0.987542       0.994611       0.998957       0.998667       0.962808       0.896680     
  0.840352       0.682559       0.166658E-004  0.997852       0.999245       0.770476E-006  0.609629E-002  0.262415       0.631003       0.841368     
  0.846807       0.915003       0.994105       0.459431       0.996891       0.972893       0.988593       0.998287       0.997333       0.933225     
  0.818518       0.739219       0.499396       0.596178E-005  0.995356       0.998503     
 
  0.114955E-005  0.214245E-001  0.432425       0.745701       0.895803       0.896198       0.944353       0.995902       0.589842       0.997806     
  0.983332       0.993263       0.998922       0.998153       0.955836       0.866085       0.811554       0.628199       0.775172E-005  0.997063     
  0.998944       0.797922E-006  0.168710E-001  0.366360       0.687135       0.875297       0.875143       0.930635       0.995535       0.541681     
  0.997859       0.982420       0.992769       0.998754       0.997970       0.957244       0.884122       0.805667       0.600514       0.896929E-005
  0.997026       0.999069       0.223842E-005  0.172310E-001  0.383224       0.708924       0.881055       0.882501       0.936741       0.995761     
  0.527082       0.997751       0.982973       0.992473       0.998628       0.998115       0.956010       0.877208       0.807998       0.606116     
  0.787319E-005  0.996962       0.998944       0.553559E-006  0.985451E-002  0.289349       0.627633       0.853646       0.851679       0.916630     
  0.994834       0.503897       0.997407       0.979041       0.990817       0.998324       0.997660       0.948618       0.866862       0.771882     
  0.542182       0.971543E-005  0.996388       0.998893       0.336763E-005  0.252330E-001  0.440896       0.740710       0.903113       0.898340     
  0.947235       0.996894       0.566207       0.998315       0.986231       0.993959       0.998883       0.998620       0.958428       0.884791     
  0.824378       0.649584       0.166657E-004  0.997609       0.999193       0.770466E-006  0.348551E-002  0.218671       0.601939       0.832010     
  0.834350       0.909338       0.993930       0.446907       0.996701       0.970104       0.987073       0.998148       0.997255       0.925227     
  0.798790       0.714629       0.449258       0.596168E-005  0.994764       0.998372     
 
  0.114494E-005  0.158327E-001  0.399835       0.733656       0.892916       0.891266       0.942619       0.995784       0.586258       0.997734     
  0.982225       0.992573       0.998872       0.998132       0.952436       0.854499       0.798526       0.595155       0.775164E-005  0.996796     
  0.998880       0.761377E-006  0.121595E-001  0.330270       0.668269       0.870023       0.867537       0.927292       0.995409       0.533870     
  0.997756       0.980900       0.991993       0.998684       0.997930       0.952786       0.871364       0.789306       0.565759       0.896920E-005
  0.996712       0.999000       0.221978E-005  0.123261E-001  0.343996       0.688129       0.874937       0.874227       0.932946       0.995649     
  0.515647       0.997647       0.981371       0.991629       0.998536       0.998061       0.951061       0.864012       0.790676       0.570268     
  0.787311E-005  0.996645       0.998876       0.551630E-006  0.651596E-002  0.250681       0.602080       0.845675       0.840969       0.911555     
  0.994697       0.492933       0.997263       0.976930       0.989753       0.998214       0.997597       0.942724       0.852386       0.752018     
  0.501730       0.971530E-005  0.995968       0.998805       0.336761E-005  0.184910E-001  0.399432       0.719992       0.897439       0.890393     
  0.943610       0.996820       0.553815       0.998232       0.984823       0.993244       0.998803       0.998574       0.953579       0.872238     
  0.807605       0.614825       0.166656E-004  0.997342       0.999139       0.770457E-006  0.189177E-002  0.179460       0.572666       0.822565     
  0.821521       0.903611       0.993784       0.435928       0.996510       0.967202       0.985407       0.997991       0.997183       0.916554     
  0.778486       0.689679       0.399892       0.596159E-005  0.994127       0.998236     
 
  0.113022E-005  0.114193E-001  0.367187       0.721158       0.889975       0.886129       0.940856       0.995680       0.583274       0.997663     
  0.981072       0.991823       0.998819       0.998113       0.948754       0.842336       0.784932       0.560683       0.775157E-005  0.996508     
  0.998814       0.755709E-006  0.852532E-002  0.294975       0.648726       0.864558       0.859559       0.923835       0.995299       0.526516     
  0.997651       0.979298       0.991147       0.998610       0.997892       0.947876       0.857801       0.772150       0.529704       0.896911E-005
  0.996371       0.998929       0.221976E-005  0.857228E-002  0.305666       0.666459       0.868591       0.865516       0.928997       0.995553     
  0.504793       0.997541       0.979668       0.990706       0.998438       0.998010       0.945614       0.850087       0.772566       0.533111     
  0.787304E-005  0.996300       0.998804       0.551627E-006  0.405150E-002  0.212667       0.574658       0.836944       0.829178       0.906025     
  0.994573       0.481904       0.997110       0.974569       0.988533       0.998090       0.997534       0.935950       0.836490       0.730528     
  0.458517       0.971518E-005  0.995488       0.998709       0.336759E-005  0.132132E-001  0.358423       0.698389       0.891560       0.882027     
  0.939842       0.996755       0.542141       0.998145       0.983313       0.992459       0.998719       0.998530       0.948234       0.859046     
  0.790106       0.578458       0.166655E-004  0.997049       0.999081       0.770448E-006  0.985871E-003  0.145828       0.544128       0.813195     
  0.808670       0.897951       0.993658       0.426232       0.996320       0.964269       0.983623       0.997813       0.997117       0.907477     
  0.758271       0.665216       0.353315       0.592969E-005  0.993464       0.998099     
 
  0.113020E-005  0.803027E-002  0.334573       0.707906       0.886898       0.880679       0.939003       0.995588       0.580741       0.997591     
  0.979854       0.991009       0.998762       0.998094       0.944750       0.829642       0.770724       0.525181       0.775149E-005  0.996198     
  0.998744       0.755706E-006  0.579657E-002  0.260785       0.628465       0.858820       0.851156       0.920230       0.995213       0.519287     
  0.997569       0.977616       0.990231       0.998539       0.997862       0.942507       0.843493       0.754250       0.492640       0.896911E-005
  0.996012       0.998866       0.221974E-005  0.577526E-002  0.268659       0.643966       0.861974       0.856346       0.924881       0.995466     
  0.494379       0.997431       0.977857       0.989699       0.998332       0.997960       0.939635       0.835485       0.753754       0.494923     
  0.787296E-005  0.995925       0.998729       0.551626E-006  0.240698E-002  0.177802       0.546833       0.827858       0.816871       0.900308     
  0.994475       0.471436       0.996983       0.972075       0.987212       0.997970       0.997482       0.928545       0.819972       0.708539     
  0.415179       0.971518E-005  0.994980       0.998623       0.336758E-005  0.906051E-002  0.317054       0.675267       0.885283       0.872953     
  0.935816       0.996693       0.530976       0.998053       0.981654       0.991570       0.998626       0.998486       0.942160       0.844758     
  0.771333       0.539409       0.166653E-004  0.996718       0.999018       0.770443E-006  0.471922E-003  0.115996       0.514946       0.803360     
  0.795124       0.892044       0.993554       0.417107       0.996161       0.961168       0.981638       0.997618       0.997064       0.897582     
  0.737149       0.640059       0.307759       0.571759E-005  0.992756       0.997974     
 
  0.113019E-005  0.549629E-002  0.302183       0.693647       0.883610       0.874822       0.937004       0.995506       0.578548       0.997517     
  0.978555       0.990128       0.998701       0.998076       0.940388       0.816442       0.755862       0.489014       0.775141E-005  0.995863     
  0.998672       0.755704E-006  0.380805E-002  0.228052       0.607504       0.852773       0.842306       0.916461       0.995134       0.512114     
  0.997484       0.975836       0.989232       0.998461       0.997832       0.936645       0.828489       0.735674       0.454877       0.896911E-005
  0.995623       0.998799       0.221973E-005  0.375517E-002  0.233392       0.620718       0.855045       0.846697       0.920587       0.995387     
  0.484271       0.997318       0.975941       0.988602       0.998217       0.997910       0.933100       0.820248       0.734311       0.456045     
  0.787289E-005  0.995517       0.998650       0.551624E-006  0.137985E-002  0.147177       0.519490       0.818650       0.804402       0.894559     
  0.994387       0.461714       0.996854       0.969523       0.985820       0.997846       0.997433       0.920709       0.803334       0.686738     
  0.373410       0.953227E-005  0.994442       0.998534       0.336756E-005  0.590557E-002  0.275753       0.650500       0.878555       0.863078     
  0.931503       0.996633       0.520433       0.997954       0.979829       0.990556       0.998523       0.998444       0.935229       0.829231     
  0.751150       0.497627       0.166652E-004  0.996341       0.998949       0.770435E-006  0.187674E-003  0.882669E-001  0.482896       0.792177     
  0.779715       0.885378       0.993447       0.407904       0.995979       0.957600       0.979220       0.997368       0.997008       0.885915     
  0.713360       0.612247       0.260571       0.533739E-005  0.991916       0.997830     
 
  0.113017E-005  0.365601E-002  0.270249       0.678055       0.880015       0.868448       0.934787       0.995431       0.576545       0.997440     
  0.977148       0.989173       0.998633       0.998058       0.935609       0.802788       0.740279       0.452599       0.775134E-005  0.995503     
  0.998597       0.755702E-006  0.240662E-002  0.197111       0.585889       0.846404       0.833000       0.912524       0.995063       0.505034     
  0.997395       0.973958       0.988145       0.998377       0.997802       0.930264       0.812851       0.716512       0.416760       0.896911E-005
  0.995200       0.998729       0.221971E-005  0.234606E-002  0.200236       0.596773       0.847758       0.836550       0.916101       0.995312     
  0.474309       0.997201       0.973921       0.987408       0.998094       0.997861       0.925997       0.804400       0.714295       0.416851     
  0.787282E-005  0.995076       0.998568       0.551624E-006  0.742462E-003  0.119732       0.491751       0.808959       0.791322       0.888561     
  0.994303       0.452238       0.996716       0.966818       0.984300       0.997713       0.997384       0.912173       0.785977       0.664394     
  0.332198       0.890130E-005  0.993855       0.998440       0.336755E-005  0.376092E-002  0.238086       0.625985       0.871851       0.853127     
  0.927218       0.996577       0.511209       0.997855       0.977969       0.989487       0.998417       0.998406       0.927930       0.813648     
  0.731115       0.456654       0.166651E-004  0.995944       0.998879       0.770424E-006  0.624905E-004  0.652180E-001  0.450481       0.780374     
  0.763501       0.878401       0.993341       0.399353       0.995786       0.953742       0.976370       0.997029       0.996951       0.873138     
  0.688595       0.583901       0.216353       0.499468E-005  0.990993       0.997676     
 
  0.113016E-005  0.234885E-002  0.238729       0.660611       0.875958       0.861362       0.932243       0.995360       0.574522       0.997356     
  0.975585       0.988121       0.998553       0.998039       0.930298       0.788582       0.723735       0.415968       0.775127E-005  0.995111     
  0.998518       0.755700E-006  0.145526E-002  0.168255       0.563671       0.839691       0.823228       0.908410       0.994994       0.498056     
  0.997301       0.971978       0.986959       0.998284       0.997772       0.923365       0.796617       0.696825       0.378667       0.884631E-005
  0.994742       0.998654       0.221970E-005  0.140025E-002  0.169498       0.572180       0.840074       0.825885       0.911409       0.995240     
  0.464372       0.997078       0.971791       0.986111       0.997963       0.997811       0.918315       0.787957       0.693750       0.377739     
  0.787275E-005  0.994597       0.998482       0.551623E-006  0.368888E-003  0.956007E-001  0.463737       0.798755       0.777625       0.882305     
  0.994220       0.442937       0.996570       0.963960       0.982642       0.997568       0.997335       0.902896       0.767896       0.641572     
  0.292086       0.839792E-005  0.993216       0.998340       0.336753E-005  0.232452E-002  0.203736       0.601515       0.865070       0.842997     
  0.922903       0.996523       0.503076       0.997753       0.976051       0.988342       0.998302       0.998370       0.920226       0.797866     
  0.711051       0.416442       0.166650E-004  0.995522       0.998807       0.770412E-006  0.268367E-004  0.478481E-001  0.420248       0.768814     
  0.747730       0.871632       0.993242       0.391888       0.995596       0.949845       0.973202       0.996592       0.996896       0.860288     
  0.664786       0.557250       0.178635       0.468113E-005  0.990057       0.997526     
 
  0.113015E-005  0.144709E-002  0.207913       0.641118       0.871352       0.853465       0.929319       0.995292       0.572448       0.997265     
  0.973845       0.986954       0.998458       0.998020       0.924396       0.773742       0.706137       0.379257       0.775121E-005  0.994682     
  0.998434       0.755697E-006  0.835584E-003  0.141707       0.540904       0.832603       0.812976       0.904109       0.994928       0.491101     
  0.997202       0.969883       0.985647       0.998174       0.997742       0.915934       0.779812       0.676663       0.340982       0.861366E-005
  0.994246       0.998576       0.221968E-005  0.792080E-003  0.141428       0.547013       0.831971       0.814693       0.906502       0.995170     
  0.454449       0.996950       0.969547       0.984702       0.997820       0.997761       0.910022       0.770935       0.672725       0.339132     
  0.787253E-005  0.994079       0.998391       0.551620E-006  0.165232E-003  0.748065E-001  0.435580       0.788022       0.763318       0.875786     
  0.994138       0.433826       0.996415       0.960948       0.980836       0.997410       0.997286       0.892850       0.749114       0.618367     
  0.253600       0.793149E-005  0.992520       0.998234       0.336752E-005  0.139341E-002  0.171998       0.576522       0.858023       0.832424     
  0.918441       0.996469       0.495832       0.997647       0.974008       0.987063       0.998162       0.998336       0.911921       0.781465     
  0.690457       0.376360       0.166649E-004  0.995063       0.998731       0.770393E-006  0.223113E-004  0.340796E-001  0.390071       0.756632     
  0.731270       0.864565       0.993143       0.384739       0.995396       0.945587       0.969412       0.996008       0.996836       0.846522     
  0.640251       0.530387       0.144663       0.441741E-005  0.989039       0.997366     
 
  0.113014E-005  0.860073E-003  0.178959       0.620073       0.866264       0.844917       0.926064       0.995227       0.570380       0.997168     
  0.971958       0.985677       0.998343       0.998000       0.917998       0.758625       0.687951       0.343652       0.775114E-005  0.994224     
  0.998348       0.755695E-006  0.450380E-003  0.117643       0.517664       0.825117       0.802241       0.899618       0.994863       0.484125     
  0.997098       0.967667       0.984186       0.998041       0.997711       0.907958       0.762461       0.656089       0.304113       0.838937E-005
  0.993711       0.998494       0.221966E-005  0.421129E-003  0.116197       0.521361       0.823436       0.802974       0.901378       0.995100     
  0.444602       0.996817       0.967182       0.983175       0.997667       0.997710       0.901094       0.753342       0.651270       0.301456     
  0.772881E-005  0.993519       0.998297       0.551617E-006  0.778289E-004  0.572805E-001  0.407423       0.776749       0.748410       0.869003     
  0.994056       0.424963       0.996251       0.957783       0.978873       0.997238       0.997237       0.882019       0.729659       0.594871     
  0.217236       0.749602E-005  0.991765       0.998121       0.336751E-005  0.806179E-003  0.143120       0.551094       0.850689       0.821402     
  0.913830       0.996415       0.489493       0.997537       0.971850       0.985633       0.997998       0.998304       0.903006       0.764437     
  0.669370       0.336864       0.166435E-004  0.994566       0.998652       0.770375E-006  0.223113E-004  0.230095E-001  0.358495       0.743079     
  0.713180       0.856787       0.993036       0.377484       0.995172       0.940635       0.964565       0.995191       0.996766       0.830991     
  0.613645       0.501944       0.113208       0.419492E-005  0.987871       0.997189     
 
  0.113013E-005  0.490827E-003  0.152254       0.597685       0.860696       0.835753       0.922488       0.995163       0.568342       0.997064     
  0.969930       0.984280       0.998203       0.997979       0.911106       0.743289       0.669312       0.309509       0.775108E-005  0.993737     
  0.998259       0.755695E-006  0.227274E-003  0.961655E-001  0.494029       0.817239       0.791028       0.894936       0.994798       0.477295     
  0.996988       0.965317       0.982553       0.997877       0.997679       0.899408       0.744571       0.635154       0.268458       0.806637E-005
  0.993134       0.998407       0.221964E-005  0.231007E-003  0.939098E-001  0.495334       0.814479       0.790736       0.896041       0.995029     
  0.435019       0.996678       0.964692       0.981519       0.997499       0.997660       0.891515       0.735172       0.629433       0.265138     
  0.747141E-005  0.992915       0.998199       0.551616E-006  0.526672E-004  0.428505E-001  0.379413       0.764924       0.732911       0.861955     
  0.993973       0.416384       0.996078       0.954447       0.976699       0.997037       0.997188       0.870395       0.709549       0.571162     
  0.183423       0.712023E-005  0.990946       0.998003       0.336750E-005  0.402771E-003  0.116010       0.523994       0.842604       0.809316     
  0.908805       0.996357       0.483422       0.997416       0.969434       0.983916       0.997786       0.998270       0.892999       0.745885     
  0.646746       0.296461       0.163484E-004  0.993998       0.998565       0.770359E-006  0.223113E-004  0.147472E-001  0.326458       0.728368     
  0.693795       0.848428       0.992925       0.370449       0.994928       0.934865       0.958287       0.994017       0.996683       0.813948     
  0.585534       0.472646       0.856750E-001  0.402311E-005  0.986560       0.996996     
 
  0.113013E-005  0.267455E-003  0.127678       0.573769       0.854540       0.825841       0.918528       0.995099       0.566301       0.996952     
  0.967728       0.982733       0.998031       0.997957       0.903618       0.727539       0.650030       0.276627       0.775102E-005  0.993214     
  0.998167       0.755690E-006  0.130962E-003  0.773239E-001  0.470084       0.808983       0.779342       0.890065       0.994724       0.470878     
  0.996851       0.962804       0.980695       0.997657       0.997639       0.890242       0.726153       0.613908       0.234408       0.771517E-005
  0.992502       0.998305       0.221963E-005  0.141573E-003  0.745728E-001  0.469045       0.805123       0.777991       0.890501       0.994958     
  0.425961       0.996533       0.962073       0.979700       0.997311       0.997610       0.881270       0.716413       0.607250       0.230574     
  0.716320E-005  0.992263       0.998096       0.551614E-006  0.491409E-004  0.309114E-001  0.350742       0.752101       0.716275       0.854381     
  0.993875       0.407833       0.995861       0.950787       0.974175       0.996778       0.997128       0.857519       0.688077       0.546492     
  0.151495       0.680653E-005  0.990018       0.997861       0.336749E-005  0.178637E-003  0.919645E-001  0.496194       0.833915       0.796497     
  0.903496       0.996298       0.477336       0.997287       0.966788       0.981879       0.997497       0.998234       0.882199       0.726378     
  0.623368       0.257123       0.157803E-004  0.993371       0.998472       0.770331E-006  0.223016E-004  0.932948E-002  0.296969       0.713834     
  0.674888       0.840225       0.992802       0.364360       0.994652       0.928649       0.950828       0.992494       0.996578       0.797084     
  0.558571       0.445209       0.642560E-001  0.390748E-005  0.985206       0.996786     
 
  0.113012E-005  0.164197E-003  0.105431       0.548392       0.847745       0.815148       0.914154       0.995035       0.564239       0.996830     
  0.965332       0.981003       0.997816       0.997933       0.895493       0.711384       0.630146       0.245267       0.768574E-005  0.992651     
  0.998070       0.755681E-006  0.898385E-004  0.610807E-001  0.445854       0.800337       0.767165       0.884993       0.994649       0.465026     
  0.996709       0.960120       0.978571       0.997379       0.997599       0.880440       0.707228       0.592387       0.202331       0.736437E-005
  0.991823       0.998199       0.221962E-005  0.107112E-003  0.581126E-001  0.442606       0.795371       0.764747       0.884759       0.994887     
  0.417558       0.996382       0.959311       0.977696       0.997097       0.997561       0.870369       0.697075       0.584780       0.198122     
  0.683832E-005  0.991562       0.997989       0.551612E-006  0.490469E-004  0.215552E-001  0.322140       0.738485       0.698805       0.846410     
  0.993776       0.399572       0.995631       0.946824       0.971250       0.996436       0.997067       0.843618       0.665647       0.521415     
  0.122565       0.657154E-005  0.988998       0.997710       0.336747E-005  0.939000E-004  0.724196E-001  0.469727       0.825226       0.783853     
  0.898273       0.996241       0.471578       0.997158       0.964070       0.979611       0.997126       0.998196       0.871410       0.707262     
  0.600887       0.221904       0.151209E-004  0.992727       0.998379       0.770288E-006  0.221577E-004  0.571827E-002  0.268583       0.698806     
  0.655596       0.831757       0.992678       0.358904       0.994365       0.921540       0.941620       0.990486       0.996456       0.779812     
  0.531740       0.418414       0.472419E-001  0.382516E-005  0.983769       0.996568     
 
  0.113011E-005  0.105222E-003  0.856363E-001  0.521664       0.840254       0.803646       0.909338       0.994971       0.562148       0.996699     
  0.962709       0.979029       0.997536       0.997907       0.886705       0.694831       0.609697       0.215643       0.748458E-005  0.992047     
  0.997969       0.755665E-006  0.755688E-004  0.472975E-001  0.420933       0.791116       0.754301       0.879564       0.994572       0.459646     
  0.996557       0.957099       0.975891       0.996929       0.997555       0.869939       0.687850       0.570506       0.172658       0.702489E-005
  0.991093       0.998087       0.221961E-005  0.957769E-004  0.440692E-001  0.415467       0.784950       0.750660       0.878658       0.994813     
  0.409648       0.996220       0.956295       0.975382       0.996823       0.997512       0.858565       0.676696       0.561530       0.167353     
  0.652160E-005  0.990787       0.997875       0.551609E-006  0.482796E-004  0.147800E-001  0.295165       0.724784       0.681416       0.838447     
  0.993679       0.392076       0.995397       0.942703       0.967940       0.995974       0.997003       0.829512       0.643450       0.497262     
  0.981074E-001  0.642266E-005  0.987936       0.997557       0.336746E-005  0.771936E-004  0.560674E-001  0.443505       0.816179       0.770858     
  0.892917       0.996184       0.465893       0.997024       0.961100       0.976890       0.996624       0.998154       0.860218       0.687703     
  0.578326       0.189387       0.144389E-004  0.992038       0.998282       0.770231E-006  0.206438E-004  0.333752E-002  0.240171       0.682587     
  0.635103       0.822536       0.992548       0.353959       0.994052       0.912887       0.929776       0.987737       0.996303       0.761599     
  0.504419       0.391430       0.337465E-001  0.376314E-005  0.982201       0.996335     
 
  0.113007E-005  0.827369E-004  0.683436E-001  0.493759       0.832014       0.791315       0.904047       0.994888       0.560033       0.996550     
  0.959784       0.976664       0.997134       0.997869       0.877244       0.677880       0.588740       0.187927       0.718744E-005  0.991391     
  0.997855       0.755625E-006  0.741210E-004  0.358152E-001  0.394952       0.781093       0.740525       0.873588       0.994475       0.454595     
  0.996385       0.953509       0.972280       0.996173       0.997491       0.858674       0.668072       0.548179       0.145696       0.671163E-005
  0.990298       0.997960       0.221957E-005  0.926132E-004  0.326641E-001  0.388402       0.774072       0.736042       0.872321       0.994721     
  0.402444       0.996044       0.953054       0.972732       0.996461       0.997453       0.846164       0.655788       0.538135       0.139341     
  0.624695E-005  0.989944       0.997747       0.551595E-006  0.456755E-004  0.986971E-002  0.269188       0.710665       0.663695       0.830283     
  0.993560       0.385160       0.995146       0.938184       0.963928       0.995304       0.996924       0.814947       0.620981       0.473433     
  0.772527E-001  0.633936E-005  0.986795       0.997388       0.336740E-005  0.771923E-004  0.425279E-001  0.417376       0.806688       0.757396     
  0.887374       0.996113       0.460282       0.996879       0.957840       0.973611       0.995966       0.998100       0.848524       0.667547     
  0.555526       0.159522       0.137899E-004  0.991291       0.998174       0.770133E-006  0.175137E-004  0.178814E-002  0.210078       0.663854     
  0.611903       0.811671       0.992374       0.349422       0.993677       0.901376       0.913404       0.983717       0.996084       0.741327     
  0.475326       0.362826       0.229441E-001  0.371490E-005  0.980385       0.996064     
 
  0.113000E-005  0.731023E-004  0.535297E-001  0.464891       0.822984       0.778148       0.898261       0.994785       0.557911       0.996383     
  0.956444       0.973690       0.996535       0.997815       0.867110       0.660540       0.567345       0.162252       0.685215E-005  0.990679     
  0.997728       0.755561E-006  0.741178E-004  0.264817E-001  0.368074       0.770190       0.725805       0.867017       0.994355       0.449845     
  0.996191       0.949154       0.967412       0.995024       0.997403       0.846657       0.647926       0.525472       0.121529       0.644559E-005
  0.989435       0.997817       0.221948E-005  0.888177E-004  0.238348E-001  0.362234       0.763018       0.721298       0.865912       0.994609     
  0.396081       0.995857       0.949576       0.969637       0.995961       0.997382       0.833537       0.634920       0.515243       0.114872     
  0.602994E-005  0.989051       0.997606       0.551567E-006  0.443878E-004  0.638839E-002  0.244072       0.696009       0.645504       0.821837     
  0.993412       0.378832       0.994873       0.932939       0.958667       0.994243       0.996820       0.799829       0.598075       0.449741     
  0.596554E-001  0.629940E-005  0.985557       0.997198       0.336729E-005  0.771899E-004  0.315642E-001  0.391436       0.796761       0.743478     
  0.881646       0.996023       0.454874       0.996722       0.954236       0.969726       0.995141       0.998034       0.836343       0.646863     
  0.532573       0.132508       0.132110E-004  0.990481       0.998055       0.769988E-006  0.133866E-004  0.921099E-003  0.181118       0.643867     
  0.587722       0.799830       0.992158       0.345577       0.993253       0.886332       0.891314       0.977978       0.995779       0.720562     
  0.446897       0.335004       0.152645E-001  0.367615E-005  0.978441       0.995765     
 
  0.112992E-005  0.701330E-004  0.411012E-001  0.435294       0.813140       0.764155       0.891982       0.994678       0.555807       0.996201     
  0.952594       0.969921       0.995690       0.997751       0.856319       0.642831       0.545593       0.138720       0.652753E-005  0.989918     
  0.997594       0.755502E-006  0.741145E-004  0.190919E-001  0.340569       0.758365       0.710150       0.859839       0.994231       0.445333     
  0.995979       0.943579       0.960441       0.993241       0.997290       0.833960       0.627461       0.502487       0.100150       0.624214E-005
  0.988509       0.997665       0.221938E-005  0.888141E-004  0.169818E-001  0.336417       0.751522       0.706094       0.859285       0.994495     
  0.390313       0.995659       0.945654       0.965705       0.995201       0.997304       0.820407       0.613571       0.492296       0.932924E-001
  0.585936E-005  0.988096       0.997459       0.551534E-006  0.420772E-004  0.400560E-002  0.219935       0.680848       0.626890       0.813116     
  0.993258       0.373188       0.994585       0.926660       0.951594       0.992611       0.996695       0.784198       0.574794       0.426235     
  0.451267E-001  0.627971E-005  0.984231       0.996999       0.336717E-005  0.771875E-004  0.226912E-001  0.365075       0.786129       0.728731     
  0.875585       0.995928       0.449705       0.996555       0.950159       0.965064       0.994114       0.997962       0.823347       0.625148     
  0.508927       0.107844       0.127088E-004  0.989589       0.997928       0.769819E-006  0.883725E-005  0.472859E-003  0.154916       0.623574     
  0.563772       0.787604       0.991937       0.342274       0.992804       0.867404       0.863019       0.970224       0.995388       0.700290     
  0.420312       0.309176       0.101058E-001  0.363890E-005  0.976464       0.995461     
 
  0.112985E-005  0.697755E-004  0.308966E-001  0.405191       0.802438       0.749326       0.885188       0.994570       0.553723       0.996004     
  0.948060       0.965070       0.994520       0.997673       0.844897       0.624769       0.523554       0.117388       0.624725E-005  0.989103     
  0.997454       0.755435E-006  0.741110E-004  0.134029E-001  0.312715       0.745569       0.693570       0.852022       0.994102       0.440994     
  0.995744       0.936191       0.950402       0.990538       0.997139       0.820634       0.606721       0.479323       0.814971E-001  0.610690E-005
  0.987516       0.997502       0.221927E-005  0.888104E-004  0.117994E-001  0.311019       0.739553       0.690423       0.852415       0.994377     
  0.385116       0.995452       0.941140       0.960689       0.994105       0.997213       0.806776       0.591761       0.469314       0.745844E-001
  0.572120E-005  0.987073       0.997305       0.551489E-006  0.388107E-004  0.243178E-002  0.196780       0.665128       0.607821       0.804047     
  0.993095       0.368216       0.994280       0.918981       0.942034       0.990207       0.996539       0.768066       0.551217       0.402926     
  0.334143E-001  0.626586E-005  0.982811       0.996789       0.336706E-005  0.770979E-004  0.157281E-001  0.338194       0.774669       0.713026     
  0.869103       0.995826       0.444909       0.996376       0.945531       0.959522       0.992882       0.997878       0.809439       0.602351     
  0.484538       0.857477E-001  0.122999E-004  0.988600       0.997791       0.769612E-006  0.467403E-005  0.236065E-003  0.130340       0.601989     
  0.538902       0.774382       0.991700       0.339207       0.992306       0.842916       0.826507       0.959753       0.994873       0.679473     
  0.394094       0.283945       0.650721E-002  0.359782E-005  0.974347       0.995135     
 
  0.112978E-005  0.697726E-004  0.227089E-001  0.374804       0.790833       0.733656       0.877855       0.994456       0.551658       0.995790     
  0.942549       0.958651       0.992872       0.997575       0.832872       0.606375       0.501298       0.982766E-001  0.602982E-005  0.988232     
  0.997305       0.755369E-006  0.737599E-004  0.915112E-002  0.284779       0.731772       0.676082       0.843524       0.993964       0.436850     
  0.995485       0.926275       0.936311       0.986658       0.996936       0.806690       0.585715       0.456043       0.654495E-001  0.602847E-005
  0.986453       0.997326       0.221914E-005  0.888065E-004  0.798269E-002  0.285923       0.726995       0.674187       0.845200       0.994250     
  0.380447       0.995230       0.935884       0.954394       0.992619       0.997107       0.792634       0.569595       0.446313       0.586842E-001
  0.561185E-005  0.985979       0.997143       0.551432E-006  0.321457E-004  0.142812E-002  0.174373       0.648586       0.588076       0.794402     
  0.992921       0.363734       0.993949       0.908886       0.928362       0.986583       0.996332       0.751403       0.527468       0.379742     
  0.242283E-001  0.625023E-005  0.981292       0.996565       0.336694E-005  0.764897E-004  0.107386E-001  0.312335       0.762977       0.697249     
  0.862510       0.995723       0.440907       0.996190       0.940621       0.953523       0.991535       0.997791       0.795502       0.580054     
  0.460977       0.675836E-001  0.120056E-004  0.987574       0.997653       0.769358E-006  0.244754E-005  0.116479E-003  0.107672       0.579103     
  0.513153       0.760062       0.991436       0.336353       0.991745       0.810314       0.778556       0.945210       0.994163       0.658132     
  0.368303       0.259388       0.406658E-002  0.355353E-005  0.972079       0.994778     
 
  0.112972E-005  0.697696E-004  0.162981E-001  0.344350       0.778287       0.717146       0.869947       0.994338       0.549611       0.995556     
  0.935655       0.950068       0.990574       0.997449       0.820263       0.587677       0.478893       0.813595E-001  0.587560E-005  0.987302     
  0.997149       0.755280E-006  0.737155E-004  0.607079E-002  0.257004       0.716939       0.657696       0.834288       0.993814       0.432940     
  0.995194       0.912538       0.916164       0.980997       0.996656       0.792130       0.564421       0.432678       0.518451E-001  0.599888E-005
  0.985315       0.997136       0.221898E-005  0.873190E-004  0.524866E-002  0.260952       0.713664       0.657230       0.837492       0.994118     
  0.376221       0.994992       0.929734       0.946617       0.990706       0.996984       0.777968       0.547213       0.423302       0.454537E-001
  0.552797E-005  0.984811       0.996974       0.551370E-006  0.235690E-004  0.811947E-003  0.152588       0.630928       0.567435       0.783923     
  0.992738       0.359544       0.993584       0.895053       0.908792       0.981180       0.996050       0.734177       0.503671       0.356626     
  0.172158E-001  0.623038E-005  0.979668       0.996325       0.336680E-005  0.764871E-004  0.720272E-002  0.287248       0.750907       0.681244     
  0.855700       0.995619       0.437641       0.995999       0.935341       0.946989       0.990040       0.997700       0.781466       0.558177     
  0.438073       0.527528E-001  0.117931E-004  0.986504       0.997512       0.769014E-006  0.151912E-005  0.559684E-004  0.859667E-001  0.553404     
  0.484952       0.743537       0.991124       0.333576       0.991064       0.763202       0.711191       0.923284       0.993087       0.634992     
  0.341549       0.234202       0.238672E-002  0.350706E-005  0.969503       0.994363     
 
  0.112964E-005  0.697665E-004  0.114074E-001  0.314030       0.764756       0.699785       0.861413       0.994212       0.547579       0.995301     
  0.926746       0.938344       0.987327       0.997281       0.807083       0.568703       0.456404       0.665705E-001  0.577900E-005  0.986310     
  0.996982       0.755155E-006  0.697248E-004  0.390951E-002  0.229681       0.701052       0.638440       0.824273       0.993651       0.429281     
  0.994870       0.893831       0.888412       0.973061       0.996274       0.776969       0.542838       0.409279       0.404850E-001  0.599624E-005
  0.984100       0.996930       0.221882E-005  0.808670E-004  0.335067E-002  0.236160       0.699439       0.639480       0.829201       0.993980     
  0.372382       0.994734       0.922468       0.937115       0.988311       0.996839       0.762776       0.524716       0.400327       0.346544E-001
  0.546410E-005  0.983563       0.996796       0.551283E-006  0.146004E-004  0.448843E-003  0.131664       0.612095       0.545896       0.772534     
  0.992543       0.355592       0.993179       0.876546       0.882116       0.973577       0.995674       0.716408       0.479903       0.333642     
  0.119832E-001  0.620371E-005  0.977934       0.996069       0.336662E-005  0.758344E-004  0.469861E-002  0.262405       0.738116       0.664609     
  0.848464       0.995509       0.434920       0.995793       0.929155       0.938900       0.988060       0.997588       0.767015       0.536253     
  0.415303       0.405405E-001  0.116264E-004  0.985364       0.997365       0.768558E-006  0.118186E-005  0.283825E-004  0.670057E-001  0.526436     
  0.456106       0.725683       0.990766       0.331035       0.990279       0.703006       0.629114       0.894142       0.991608       0.611520     
  0.315649       0.210139       0.135348E-002  0.346617E-005  0.966756       0.993903     
 
  0.112953E-005  0.690758E-004  0.777853E-002  0.284054       0.750200       0.681574       0.852200       0.994075       0.545557       0.995019     
  0.915030       0.922257       0.982759       0.997056       0.793352       0.549489       0.433899       0.538093E-001  0.573160E-005  0.985252     
  0.996804       0.754998E-006  0.609734E-004  0.244191E-002  0.203154       0.684098       0.618348       0.813491       0.993474       0.425834     
  0.994505       0.869614       0.852903       0.962691       0.995781       0.761229       0.521023       0.385943       0.311448E-001  0.599603E-005
  0.982801       0.996703       0.221865E-005  0.685786E-004  0.207774E-002  0.211782       0.684287       0.620953       0.820297       0.993836     
  0.368893       0.994455       0.913794       0.925483       0.985284       0.996669       0.747086       0.502184       0.377477       0.259943E-001
  0.541306E-005  0.982233       0.996609       0.551143E-006  0.849813E-005  0.242074E-003  0.111696       0.591918       0.523300       0.760020     
  0.992324       0.351874       0.992715       0.849430       0.842678       0.961800       0.995108       0.697957       0.455999       0.310670     
  0.813379E-002  0.617114E-005  0.976067       0.995783       0.336637E-005  0.698950E-004  0.298652E-002  0.237791       0.724469       0.647261     
  0.840667       0.995390       0.432556       0.995568       0.920999       0.927285       0.984929       0.997427       0.752176       0.514376     
  0.392711       0.306766E-001  0.114816E-004  0.984150       0.997209       0.768009E-006  0.103373E-005  0.161188E-004  0.517840E-001  0.500050     
  0.428556       0.707721       0.990375       0.328716       0.989431       0.636875       0.543948       0.860564       0.989807       0.589238     
  0.292099       0.188601       0.766799E-003  0.343489E-005  0.964000       0.993425     
 
  0.112939E-005  0.658211E-004  0.516159E-002  0.254678       0.734587       0.662523       0.842285       0.993929       0.543538       0.994708     
  0.899641       0.900684       0.976541       0.996758       0.779088       0.530074       0.411445       0.429428E-001  0.571823E-005  0.984126     
  0.996613       0.754794E-006  0.487510E-004  0.147894E-002  0.177743       0.666067       0.597472       0.801930       0.993281       0.422491     
  0.994098       0.839563       0.810003       0.949722       0.995161       0.744947       0.499072       0.362781       0.235890E-001  0.599582E-005
  0.981418       0.996457       0.221843E-005  0.519023E-004  0.125365E-002  0.188080       0.668203       0.601685       0.810757       0.993685     
  0.365699       0.994153       0.903280       0.911073       0.981399       0.996462       0.730934       0.479698       0.354852       0.191715E-001
  0.536877E-005  0.980818       0.996412       0.550960E-006  0.517504E-005  0.128000E-003  0.927431E-001  0.570095       0.499379       0.746047     
  0.992069       0.348411       0.992166       0.808431       0.783909       0.943284       0.994225       0.678604       0.431717       0.287522     
  0.534629E-002  0.613674E-005  0.974035       0.995457       0.336604E-005  0.575205E-004  0.184326E-002  0.213533       0.709860       0.629153     
  0.832215       0.995260       0.430387       0.995317       0.909699       0.910444       0.980077       0.997191       0.736974       0.492631     
  0.370350       0.228561E-001  0.113410E-004  0.982858       0.997042       0.767348E-006  0.997397E-006  0.976164E-005  0.390928E-001  0.472883     
  0.400837       0.688712       0.989936       0.326383       0.988474       0.564621       0.456314       0.821530       0.987575       0.566864     
  0.269401       0.168224       0.418966E-003  0.341132E-005  0.961080       0.992906     
 
  0.112922E-005  0.589465E-004  0.332930E-002  0.226189       0.717901       0.642657       0.831648       0.993771       0.541510       0.994364     
  0.879489       0.872420       0.968245       0.996365       0.764308       0.510500       0.389118       0.338163E-001  0.571805E-005  0.982926     
  0.996405       0.754515E-006  0.332887E-004  0.869342E-003  0.153708       0.646971       0.575855       0.789571       0.993069       0.419155     
  0.993642       0.803408       0.760077       0.933883       0.994388       0.728157       0.477065       0.339894       0.175777E-001  0.599560E-005
  0.979944       0.996189       0.221817E-005  0.361695E-004  0.738430E-003  0.165309       0.651194       0.581721       0.800563       0.993523     
  0.362768       0.993825       0.890506       0.893337       0.976435       0.996209       0.714360       0.457330       0.332545       0.138936E-001
  0.532746E-005  0.979314       0.996205       0.550713E-006  0.349146E-005  0.683353E-004  0.757689E-001  0.547415       0.475053       0.731094     
  0.991773       0.345299       0.991533       0.753926       0.708871       0.918061       0.992991       0.659052       0.407962       0.265103     
  0.344741E-002  0.610727E-005  0.971898       0.995093       0.336559E-005  0.414469E-004  0.109932E-002  0.189904       0.694266       0.610312     
  0.823099       0.995117       0.428378       0.995037       0.894664       0.887881       0.973355       0.996874       0.721439       0.471074     
  0.348295       0.167620E-001  0.111919E-004  0.981485       0.996862       0.766528E-006  0.976890E-006  0.606823E-005  0.287857E-001  0.445106     
  0.373130       0.668680       0.989434       0.324021       0.987388       0.488193       0.369408       0.776808       0.984820       0.544472     
  0.247623       0.149081       0.220062E-003  0.339583E-005  0.957990       0.992340     
 
  0.112898E-005  0.478137E-004  0.208612E-002  0.198855       0.700135       0.622007       0.820246       0.993598       0.539453       0.993979     
  0.853324       0.836134       0.957260       0.995847       0.749030       0.490817       0.366993       0.262600E-001  0.571785E-005  0.981650     
  0.996180       0.754192E-006  0.212030E-004  0.498234E-003  0.131268       0.626852       0.553558       0.776382       0.992836       0.415823     
  0.993135       0.761042       0.703740       0.914944       0.993440       0.710894       0.455071       0.317367       0.128781E-001  0.599538E-005
  0.978378       0.995899       0.221790E-005  0.243051E-004  0.426651E-003  0.143708       0.633274       0.561120       0.789705       0.993352     
  0.360072       0.993469       0.874834       0.871446       0.970086       0.995893       0.697411       0.435149       0.310638       0.988710E-002
  0.528736E-005  0.977719       0.995986       0.550373E-006  0.258797E-005  0.373531E-004  0.610342E-001  0.524243       0.450724       0.715371     
  0.991431       0.342372       0.990809       0.686763       0.620619       0.885712       0.991336       0.639597       0.385017       0.243711     
  0.218988E-002  0.608781E-005  0.969678       0.994691       0.336504E-005  0.263911E-004  0.633876E-003  0.167145       0.677673       0.590758     
  0.813294       0.994962       0.426532       0.994729       0.875894       0.859999       0.964799       0.996475       0.705594       0.449726     
  0.326591       0.120907E-001  0.110299E-004  0.980028       0.996670       0.765498E-006  0.972266E-006  0.415864E-005  0.206381E-001  0.416897     
  0.345614       0.647581       0.988850       0.321624       0.986145       0.409046       0.285808       0.725569       0.981383       0.522146     
  0.226823       0.131228       0.110641E-003  0.338799E-005  0.954727       0.991720     
 
  0.112863E-005  0.343689E-004  0.127183E-002  0.172915       0.681290       0.600610       0.808030       0.993406       0.537349       0.993546     
  0.820093       0.790947       0.943001       0.995164       0.733276       0.471072       0.345138       0.200962E-001  0.571765E-005  0.980294     
  0.995933       0.753808E-006  0.129797E-004  0.279638E-003  0.110601       0.605738       0.530635       0.762316       0.992571       0.412505     
  0.992563       0.711688       0.640722       0.892221       0.992261       0.693209       0.433176       0.295287       0.926941E-002  0.599514E-005
  0.976714       0.995582       0.221756E-005  0.163212E-004  0.243099E-003  0.123483       0.614463       0.539940       0.778166       0.993167     
  0.357537       0.993080       0.855066       0.843877       0.961777       0.995490       0.680147       0.413227       0.289215       0.690438E-002
  0.524849E-005  0.976028       0.995752       0.549899E-006  0.224827E-005  0.209510E-004  0.482227E-001  0.500201       0.426013       0.698545     
  0.991019       0.339421       0.989958       0.607666       0.522064       0.845297       0.989132       0.619897       0.362432       0.222958     
  0.135617E-002  0.608026E-005  0.967328       0.994238       0.336439E-005  0.160226E-004  0.348123E-003  0.144814       0.659490       0.569871     
  0.802440       0.994793       0.424814       0.994378       0.852515       0.826144       0.954097       0.995972       0.688961       0.427977     
  0.304634       0.847782E-002  0.108518E-004  0.978433       0.996461       0.764200E-006  0.972167E-006  0.384617E-005  0.143812E-001  0.388438     
  0.318451       0.625404       0.988155       0.319180       0.984704       0.329946       0.209227       0.667549       0.977083       0.499949     
  0.207036       0.114700       0.542661E-004  0.338652E-005  0.951283       0.991032     
 
  0.112819E-005  0.229610E-004  0.757116E-003  0.148590       0.661380       0.578514       0.794944       0.993188       0.535185       0.993057     
  0.778751       0.736285       0.924821       0.994273       0.717077       0.451310       0.323614       0.151458E-001  0.571745E-005  0.978854     
  0.995661       0.753343E-006  0.841432E-005  0.154372E-003  0.918525E-001  0.583681       0.507164       0.747372       0.992273       0.409201     
  0.991919       0.655467       0.571978       0.865343       0.990807       0.675148       0.411461       0.273740       0.655074E-002  0.599490E-005
  0.974950       0.995236       0.221715E-005  0.117551E-004  0.137897E-003  0.104801       0.594794       0.518249       0.765931       0.992969     
  0.355108       0.992653       0.830213       0.809522       0.950977       0.994969       0.662623       0.391635       0.268348       0.472765E-002
  0.521170E-005  0.974240       0.995504       0.549271E-006  0.197193E-005  0.121369E-004  0.373273E-001  0.475418       0.401063       0.680626     
  0.990527       0.336439       0.988963       0.520940       0.420373       0.797276       0.986291       0.599998       0.340274       0.202938     
  0.817582E-003  0.607998E-005  0.964845       0.993729       0.336363E-005  0.796851E-005  0.188589E-003  0.123990       0.640352       0.548441     
  0.790889       0.994611       0.423298       0.993992       0.824944       0.787292       0.941362       0.995365       0.672168       0.406676     
  0.283307       0.584656E-002  0.106719E-004  0.976753       0.996240       0.762510E-006  0.964848E-006  0.384582E-005  0.956603E-002  0.358800     
  0.290766       0.601300       0.987300       0.316576       0.982971       0.252956       0.141741       0.601389       0.971572       0.477085     
  0.187590       0.989473E-001  0.320493E-004  0.338635E-005  0.947509       0.990246     
 
  0.112764E-005  0.149400E-004  0.440529E-003  0.126076       0.640423       0.555764       0.780944       0.992937       0.532950       0.992499     
  0.728147       0.671633       0.901881       0.993110       0.700463       0.431575       0.302478       0.112336E-001  0.571724E-005  0.977327     
  0.995360       0.752788E-006  0.554635E-005  0.846533E-004  0.751156E-001  0.560752       0.483232       0.731564       0.991934       0.405904     
  0.991193       0.593522       0.499708       0.834272       0.989038       0.656743       0.389983       0.252786       0.454114E-002  0.599466E-005
  0.973083       0.994859       0.221664E-005  0.868793E-005  0.787507E-004  0.877927E-001  0.574314       0.496124       0.752991       0.992754     
  0.352776       0.992182       0.799488       0.767645       0.937240       0.994302       0.644881       0.370426       0.248101       0.317167E-002
  0.517812E-005  0.972350       0.995237       0.548454E-006  0.191559E-005  0.745062E-005  0.282697E-001  0.450015       0.376011       0.661615     
  0.989931       0.333408       0.987794       0.430856       0.321718       0.741707       0.982678       0.579961       0.318599       0.183726     
  0.478828E-003  0.607970E-005  0.962224       0.993158       0.336271E-005  0.453319E-005  0.100494E-003  0.105466       0.620992       0.527288     
  0.779046       0.994416       0.421944       0.993576       0.793251       0.743592       0.926390       0.994630       0.655833       0.386530     
  0.263340       0.401998E-002  0.105043E-004  0.975043       0.996011       0.760378E-006  0.947454E-006  0.384546E-005  0.615644E-002  0.329447     
  0.263929       0.576209       0.986266       0.313864       0.980946       0.184464       0.887336E-001  0.530367       0.964764       0.454606     
  0.169391       0.847123E-001  0.313342E-004  0.338617E-005  0.943548       0.989375     
 
  0.112694E-005  0.985216E-005  0.250537E-003  0.105537       0.618465       0.532418       0.766023       0.992642       0.530639       0.991858     
  0.668255       0.598079       0.873654       0.991613       0.683462       0.411914       0.281787       0.819406E-002  0.571702E-005  0.975706     
  0.995025       0.752145E-006  0.434335E-005  0.469541E-004  0.604102E-001  0.537024       0.458928       0.714827       0.991542       0.402590     
  0.990364       0.525987       0.424718       0.798128       0.986848       0.638070       0.368820       0.232499       0.308518E-002  0.599441E-005
  0.971107       0.994445       0.221597E-005  0.676168E-005  0.457295E-004  0.725377E-001  0.553078       0.473640       0.739318       0.992514     
  0.350532       0.991656       0.761058       0.716317       0.919560       0.993428       0.626969       0.349651       0.228533       0.208276E-002
  0.514898E-005  0.970356       0.994946       0.547405E-006  0.191543E-005  0.574456E-005  0.209189E-001  0.424137       0.350999       0.641499     
  0.989203       0.330315       0.986415       0.341955       0.232092       0.678967       0.978138       0.559839       0.297458       0.165399     
  0.272956E-003  0.607941E-005  0.959461       0.992518       0.336158E-005  0.318815E-005  0.554302E-004  0.886230E-001  0.600830       0.505767     
  0.766535       0.994197       0.420620       0.993113       0.754997       0.692656       0.908122       0.993716       0.639423       0.366817     
  0.244033       0.273079E-002  0.103490E-004  0.973246       0.995765       0.757844E-006  0.841449E-006  0.384509E-005  0.391214E-002  0.301836     
  0.239182       0.551331       0.985072       0.311132       0.978686       0.129713       0.521744E-001  0.459817       0.956860       0.433479     
  0.153108       0.724644E-001  0.312414E-004  0.338579E-005  0.939570       0.988450     
 
  0.112608E-005  0.657570E-005  0.140209E-003  0.870655E-001  0.595556       0.508546       0.750166       0.992296       0.528253       0.991120     
  0.600263       0.518163       0.839853       0.989716       0.666104       0.392370       0.261590       0.587299E-002  0.571680E-005  0.973990     
  0.994653       0.751362E-006  0.330626E-005  0.265137E-004  0.477270E-001  0.512578       0.434349       0.697184       0.991083       0.399238     
  0.989413       0.454371       0.348980       0.756469       0.984147       0.619193       0.348040       0.212948       0.205210E-002  0.599416E-005
  0.969018       0.993986       0.221505E-005  0.559172E-005  0.275816E-004  0.590655E-001  0.531148       0.450883       0.724874       0.992244     
  0.348366       0.991062       0.713295       0.654223       0.896816       0.992268       0.608938       0.329359       0.209696       0.133712E-002
  0.512539E-005  0.968254       0.994628       0.546079E-006  0.191526E-005  0.527594E-005  0.151049E-001  0.397955       0.326177       0.620294     
  0.988318       0.327150       0.984791       0.259615       0.156728       0.610331       0.972520       0.539681       0.276912       0.148033     
  0.158309E-003  0.607912E-005  0.956554       0.991801       0.336021E-005  0.286301E-005  0.422290E-004  0.735250E-001  0.579941       0.483973     
  0.753359       0.993956       0.419314       0.992596       0.710581       0.635452       0.886374       0.992591       0.622976       0.347579     
  0.225442       0.183510E-002  0.102106E-004  0.971362       0.995502       0.754774E-006  0.841368E-006  0.384473E-005  0.241432E-002  0.274963     
  0.215540       0.525808       0.983657       0.308287       0.976089       0.870665E-001  0.282022E-001  0.389658       0.947514       0.412789     
  0.137940       0.615360E-001  0.305501E-004  0.338280E-005  0.935416       0.987437     
 
  0.112502E-005  0.480799E-005  0.781667E-004  0.706924E-001  0.571741       0.484212       0.733313       0.991882       0.525765       0.990261     
  0.525234       0.434042       0.799761       0.987308       0.648437       0.372990       0.241939       0.413263E-002  0.571657E-005  0.972172     
  0.994236       0.750404E-006  0.288240E-005  0.154655E-004  0.369958E-001  0.487524       0.409612       0.678653       0.990544       0.395833     
  0.988324       0.382062       0.276563       0.709818       0.980871       0.600156       0.327690       0.194185       0.133467E-002  0.599390E-005
  0.966813       0.993480       0.221384E-005  0.469090E-005  0.220838E-004  0.473646E-001  0.508604       0.427944       0.709633       0.991933     
  0.346269       0.990386       0.656714       0.582818       0.868560       0.990757       0.590830       0.309591       0.191642       0.839554E-003
  0.510809E-005  0.966042       0.994279       0.544387E-006  0.191509E-005  0.459612E-005  0.106299E-001  0.371629       0.301680       0.598020     
  0.987224       0.323900       0.982863       0.187737       0.979405E-001  0.537040       0.965584       0.519531       0.257009       0.131684     
  0.105224E-003  0.607882E-005  0.953498       0.990993       0.335851E-005  0.276009E-005  0.360107E-004  0.602027E-001  0.558409       0.462000     
  0.739517       0.993684       0.418004       0.992019       0.659901       0.572495       0.860764       0.991207       0.606524       0.328854     
  0.207613       0.121084E-002  0.100927E-004  0.969391       0.995218       0.751002E-006  0.841287E-006  0.384437E-005  0.144900E-002  0.249006     
  0.193113       0.499679       0.981951       0.305319       0.973069       0.553679E-001  0.137472E-001  0.321076       0.936381       0.392589     
  0.123879       0.518741E-001  0.293957E-004  0.337163E-005  0.931083       0.986315     
 
  0.112366E-005  0.343407E-005  0.439088E-004  0.564201E-001  0.547079       0.459497       0.715450       0.991379       0.523133       0.989258     
  0.445582       0.349083       0.753045       0.984277       0.630508       0.353820       0.222883       0.285228E-002  0.571634E-005  0.970249     
  0.993767       0.749233E-006  0.282841E-005  0.100095E-004  0.280966E-001  0.461979       0.384831       0.659208       0.989910       0.392371     
  0.987074       0.311453       0.210173       0.658193       0.976916       0.581007       0.307817       0.176259       0.847493E-003  0.599363E-005
  0.964486       0.992922       0.221229E-005  0.423300E-005  0.170451E-004  0.373800E-001  0.485546       0.404927       0.693633       0.991577     
  0.344230       0.989618       0.592879       0.505253       0.834856       0.988853       0.572689       0.290388       0.174417       0.523662E-003
  0.509690E-005  0.963716       0.993897       0.542212E-006  0.189856E-005  0.456040E-005  0.728332E-002  0.345313       0.277634       0.574626     
  0.985853       0.320557       0.980553       0.128092       0.555628E-001  0.460241       0.957010       0.499427       0.237781       0.116395     
  0.803330E-004  0.607851E-005  0.950288       0.990078       0.335634E-005  0.272056E-005  0.360087E-004  0.486391E-001  0.536319       0.439940     
  0.724997       0.993371       0.416674       0.991365       0.602340       0.503761       0.830361       0.989481       0.590100       0.310679     
  0.190592       0.781181E-003  0.999716E-005  0.967331       0.994909       0.746357E-006  0.841204E-006  0.384400E-005  0.848428E-003  0.224147     
  0.171998       0.473025       0.979880       0.302217       0.969538       0.332396E-001  0.593391E-002  0.255932       0.923145       0.372931     
  0.110906       0.434115E-001  0.285833E-004  0.334842E-005  0.926572       0.985069     
 
  0.112194E-005  0.283978E-005  0.254103E-004  0.441982E-001  0.521657       0.434497       0.696561       0.990770       0.520330       0.988084     
  0.365449       0.268340       0.700148       0.980517       0.612351       0.334901       0.204473       0.192874E-002  0.571610E-005  0.968214     
  0.993242       0.747818E-006  0.282655E-005  0.943573E-005  0.208770E-001  0.436069       0.360123       0.638792       0.989160       0.388839     
  0.985625       0.244667       0.151779       0.601223       0.972118       0.561797       0.288465       0.159217       0.526547E-003  0.599335E-005
  0.962033       0.992302       0.221037E-005  0.412627E-005  0.144096E-004  0.290041E-001  0.462079       0.381936       0.676917       0.991168     
  0.342226       0.988750       0.523856       0.425157       0.795924       0.986512       0.554563       0.271788       0.158060       0.335003E-003
  0.509065E-005  0.961275       0.993481       0.539451E-006  0.187606E-005  0.451177E-005  0.485587E-002  0.319188       0.254177       0.550149     
  0.984143       0.317113       0.977791       0.822424E-001  0.282503E-001  0.382764       0.946549       0.479421       0.219278       0.102206     
  0.614351E-004  0.607820E-005  0.946920       0.989041       0.335362E-005  0.272040E-005  0.360067E-004  0.387681E-001  0.513775       0.417894     
  0.709813       0.993010       0.415325       0.990622       0.538828       0.431221       0.794872       0.987345       0.573743       0.293088     
  0.174412       0.491107E-003  0.992289E-005  0.965183       0.994571       0.740759E-006  0.841120E-006  0.378567E-005  0.488089E-003  0.200571     
  0.152290       0.446047       0.977401       0.298981       0.965447       0.189112E-001  0.224673E-002  0.196889       0.907680       0.353855     
  0.989967E-001  0.360697E-001  0.279336E-004  0.330833E-005  0.921889       0.983694     
 
  0.111975E-005  0.241878E-005  0.168238E-004  0.339285E-001  0.495569       0.409307       0.676568       0.990020       0.517331       0.986699     
  0.287856       0.195212       0.640830       0.975846       0.594003       0.316273       0.186756       0.127655E-002  0.571584E-005  0.966061     
  0.992648       0.746113E-006  0.282634E-005  0.762069E-005  0.151641E-001  0.409943       0.335613       0.617548       0.988278       0.385234     
  0.983960       0.185705       0.104093       0.541298       0.966420       0.542564       0.269675       0.143100       0.330513E-003  0.599307E-005
  0.959451       0.991620       0.220802E-005  0.408028E-005  0.135057E-004  0.221029E-001  0.438317       0.359079       0.659498       0.990699     
  0.340237       0.987769       0.452355       0.346434       0.752193       0.983676       0.536490       0.253821       0.142603       0.216451E-003
  0.508784E-005  0.958715       0.993027       0.536004E-006  0.187589E-005  0.451136E-005  0.314854E-002  0.293458       0.231464       0.524695     
  0.982030       0.313548       0.974510       0.497497E-001  0.127498E-001  0.308123       0.933982       0.459576       0.201565       0.891576E-001
  0.475621E-004  0.607788E-005  0.943393       0.987873       0.335028E-005  0.272024E-005  0.360046E-004  0.304957E-001  0.490910       0.395977     
  0.694022       0.992595       0.413940       0.989782       0.471856       0.358520       0.754822       0.984760       0.557490       0.276107     
  0.159104       0.301786E-003  0.986753E-005  0.962949       0.994204       0.734077E-006  0.828776E-006  0.363684E-005  0.279314E-003  0.178379     
  0.134048       0.418911       0.974451       0.295585       0.960727       0.102611E-001  0.740987E-003  0.145774       0.889828       0.335382     
  0.881201E-001  0.297598E-001  0.262745E-004  0.325213E-005  0.917040       0.982182     
 
  0.111668E-005  0.224443E-005  0.160704E-004  0.254681E-001  0.468785       0.383897       0.655105       0.988717       0.513709       0.984825     
  0.215882       0.132447       0.574696       0.969768       0.575367       0.297906       0.169739       0.828274E-003  0.571418E-005  0.963538     
  0.991676       0.743928E-006  0.282565E-005  0.730163E-005  0.107557E-001  0.383678       0.311359       0.595341       0.986961       0.381297     
  0.981886       0.135601       0.672318E-001  0.479244       0.959510       0.523244       0.251431       0.127915       0.221049E-003  0.599159E-005
  0.956531       0.990623       0.220465E-005  0.404679E-005  0.128930E-004  0.165317E-001  0.414284       0.336366       0.641193       0.989821     
  0.338025       0.986463       0.380901       0.272429       0.703916       0.980070       0.518394       0.236468       0.128046       0.138815E-003
  0.508582E-005  0.955813       0.992265       0.531636E-006  0.187539E-005  0.451017E-005  0.198738E-002  0.268281       0.209598       0.498288     
  0.979139       0.309622       0.970457       0.283479E-001  0.503538E-002  0.239150       0.918864       0.439889       0.184671       0.772629E-001
  0.405317E-004  0.607627E-005  0.939488       0.986298       0.334579E-005  0.271969E-005  0.359972E-004  0.236801E-001  0.467812       0.374259     
  0.677557       0.991897       0.412306       0.988705       0.404183       0.289124       0.710791       0.981549       0.541293       0.259719     
  0.144677       0.181965E-003  0.982711E-005  0.960480       0.993627       0.725975E-006  0.783169E-006  0.346069E-005  0.162054E-003  0.157605     
  0.117266       0.391628       0.970625       0.291769       0.955108       0.538114E-002  0.211239E-003  0.103471       0.869188       0.317460     
  0.782190E-001  0.243830E-001  0.227616E-004  0.318214E-005  0.911801       0.980231     
 
  0.111266E-005  0.224332E-005  0.121398E-004  0.186710E-001  0.441495       0.358446       0.632377       0.986969       0.509596       0.982501     
  0.153950       0.832357E-001  0.504389       0.962221       0.556538       0.279880       0.153494       0.533569E-003  0.571170E-005  0.960743     
  0.990444       0.741204E-006  0.282464E-005  0.727683E-005  0.744620E-002  0.357455       0.287515       0.572217       0.985266       0.377109     
  0.979400       0.946445E-001  0.403642E-001  0.415681       0.951233       0.503936       0.233786       0.113705       0.150637E-003  0.598936E-005
  0.953347       0.989395       0.220033E-005  0.404496E-005  0.128871E-004  0.121360E-001  0.390150       0.313949       0.622129       0.988658     
  0.335685       0.984889       0.311749       0.205630       0.651392       0.975687       0.500364       0.219787       0.114426       0.938967E-004
  0.508304E-005  0.952662       0.991306       0.526232E-006  0.187467E-005  0.450841E-005  0.122638E-002  0.243885       0.188736       0.471213     
  0.975490       0.305425       0.965609       0.152635E-001  0.171445E-002  0.178309       0.901081       0.420476       0.168663       0.665330E-001
  0.387343E-004  0.606840E-005  0.935291       0.984411       0.334021E-005  0.271886E-005  0.359861E-004  0.181588E-001  0.444691       0.352914     
  0.660571       0.991003       0.410499       0.987435       0.338569       0.225809       0.663542       0.977734       0.525217       0.243968     
  0.131167       0.112569E-003  0.979808E-005  0.957847       0.992921       0.716377E-006  0.697240E-006  0.320756E-005  0.976916E-004  0.138350     
  0.101976       0.364475       0.965985       0.287627       0.948592       0.276515E-002  0.515407E-004  0.703124E-001  0.845786       0.300155     
  0.692590E-001  0.198479E-001  0.190403E-004  0.309971E-005  0.906279       0.977958     
 
  0.110762E-005  0.224203E-005  0.121015E-004  0.133538E-001  0.413867       0.333111       0.608444       0.984831       0.505065       0.979731     
  0.103871       0.478502E-001  0.431827       0.953052       0.537586       0.262257       0.138075       0.347120E-003  0.570882E-005  0.957745     
  0.989028       0.737903E-006  0.282349E-005  0.726830E-005  0.502754E-002  0.331457       0.264235       0.548253       0.983258       0.372744     
  0.976516       0.629266E-001  0.223077E-001  0.352113       0.941452       0.484723       0.216791       0.100498       0.102177E-003  0.598684E-005
  0.949974       0.988018       0.219510E-005  0.404284E-005  0.128803E-004  0.874678E-002  0.366079       0.291963       0.602407       0.987297     
  0.333293       0.983086       0.247162       0.148074       0.595138       0.970480       0.482477       0.203815       0.101762       0.714849E-004
  0.507768E-005  0.949331       0.990228       0.519746E-006  0.187385E-005  0.450644E-005  0.744384E-003  0.220464       0.169006       0.443748     
  0.971131       0.301047       0.959976       0.779491E-002  0.497037E-003  0.127379       0.880627       0.401418       0.153586       0.569427E-001
  0.387176E-004  0.604067E-005  0.930883       0.982304       0.333364E-005  0.271790E-005  0.359733E-004  0.137571E-001  0.421736       0.332081     
  0.643222       0.989977       0.408607       0.986011       0.277538       0.170706       0.614097       0.973339       0.509321       0.228892     
  0.118587       0.818868E-004  0.977357E-005  0.955099       0.992141       0.705300E-006  0.581689E-006  0.289191E-005  0.625202E-004  0.120691     
  0.881899E-001  0.337792       0.960618       0.283263       0.941224       0.138803E-002  0.109060E-004  0.457272E-001  0.819820       0.283531     
  0.611985E-001  0.160610E-001  0.152266E-004  0.300596E-005  0.900578       0.975473     
 
  0.110127E-005  0.224058E-005  0.118218E-004  0.930738E-002  0.386021       0.307992       0.583210       0.982228       0.500072       0.976421     
  0.657238E-001  0.246340E-001  0.358386       0.941880       0.518565       0.245074       0.123518       0.226490E-003  0.570557E-005  0.954541     
  0.987414       0.733727E-006  0.282155E-005  0.726327E-005  0.330238E-002  0.305744       0.241557       0.523306       0.980611       0.368071     
  0.972999       0.396941E-001  0.112248E-001  0.290402       0.929752       0.465576       0.200443       0.882880E-001  0.731621E-004  0.598322E-005
  0.946280       0.986331       0.218892E-005  0.404048E-005  0.128727E-004  0.619228E-002  0.342226       0.270519       0.582094       0.985742     
  0.330852       0.981044       0.189557       0.101379       0.536356       0.964378       0.464775       0.188569       0.900563E-001  0.605946E-004
  0.506626E-005  0.945826       0.989038       0.511954E-006  0.187208E-005  0.450314E-005  0.448034E-003  0.198078       0.150436       0.415921     
  0.965710       0.296386       0.953321       0.384042E-002  0.122858E-003  0.869470E-001  0.857269       0.382686       0.139449       0.484331E-001
  0.381912E-004  0.598449E-005  0.926136       0.979814       0.332609E-005  0.271684E-005  0.359593E-004  0.103057E-001  0.399099       0.311860     
  0.625645       0.988831       0.406664       0.984440       0.222959       0.124966       0.563451       0.968387       0.493653       0.214508     
  0.106934       0.738452E-004  0.974712E-005  0.952249       0.991296       0.692468E-006  0.466804E-006  0.255473E-005  0.429174E-004  0.104621     
  0.758467E-001  0.311663       0.954178       0.278599       0.932777       0.673324E-003  0.201381E-005  0.283205E-001  0.791188       0.267572     
  0.539758E-001  0.129265E-001  0.115758E-004  0.290187E-005  0.894581       0.972603     
 
  0.109327E-005  0.223893E-005  0.118130E-004  0.631054E-002  0.358086       0.283199       0.556602       0.979041       0.494582       0.972452     
  0.387970E-001  0.111609E-001  0.286718       0.928337       0.499501       0.228365       0.109852       0.147438E-003  0.570189E-005  0.951110     
  0.985566       0.728494E-006  0.281932E-005  0.725749E-005  0.211100E-002  0.280468       0.219603       0.497436       0.977387       0.363116     
  0.968814       0.234111E-001  0.497252E-002  0.231032       0.915678       0.446581       0.184785       0.770817E-001  0.610968E-004  0.597907E-005
  0.942343       0.984402       0.218162E-005  0.403781E-005  0.128642E-004  0.430954E-002  0.318716       0.249707       0.561213       0.983951     
  0.328323       0.978721       0.140204       0.655549E-001  0.475951       0.957245       0.447277       0.174059       0.793002E-001  0.553773E-004
  0.504590E-005  0.942136       0.987717       0.502811E-006  0.183962E-005  0.449937E-005  0.270806E-003  0.176857       0.133110       0.387947     
  0.959333       0.291468       0.945670       0.189827E-002  0.259983E-004  0.565695E-001  0.830981       0.364365       0.126278       0.409490E-001
  0.364858E-004  0.590428E-005  0.921142       0.977037       0.331754E-005  0.271566E-005  0.359435E-004  0.764059E-002  0.376929       0.292350     
  0.607937       0.987551       0.404658       0.982720       0.176073       0.887322E-001  0.512701       0.962890       0.478251       0.200826     
  0.961971E-001  0.735891E-004  0.971330E-005  0.949295       0.990380       0.677919E-006  0.364969E-006  0.221893E-005  0.315855E-004  0.901551E-001
  0.649079E-001  0.286287       0.946829       0.273693       0.923312       0.329715E-003  0.316849E-006  0.166677E-001  0.759988       0.252340     
  0.475435E-001  0.103568E-001  0.834896E-005  0.278941E-005  0.888403       0.969460     
 
  0.108343E-005  0.223708E-005  0.118031E-004  0.414711E-002  0.330238       0.258873       0.528708       0.975196       0.488567       0.967732     
  0.213972E-001  0.442059E-002  0.220712       0.912174       0.480429       0.212167       0.970986E-001  0.102879E-003  0.569773E-005  0.947437     
  0.983467       0.721820E-006  0.281687E-005  0.725112E-005  0.131402E-002  0.255724       0.198433       0.470570       0.973431       0.357846     
  0.963785       0.127819E-001  0.186763E-002  0.175454       0.898585       0.427769       0.169833       0.668658E-001  0.574988E-004  0.597448E-005
  0.938167       0.982212       0.217286E-005  0.403484E-005  0.128546E-004  0.295288E-002  0.295641       0.229600       0.539753       0.981878     
  0.325651       0.976062       0.993148E-001  0.394654E-001  0.414270       0.948847       0.429989       0.160297       0.694755E-001  0.512461E-004
  0.501689E-005  0.938254       0.986247       0.492240E-006  0.171219E-005  0.446635E-005  0.167256E-003  0.156900       0.117069       0.360052     
  0.951951       0.286295       0.936965       0.959856E-003  0.459710E-005  0.350054E-001  0.801788       0.346499       0.114066       0.344210E-001
  0.340451E-004  0.580103E-005  0.915922       0.973987       0.330806E-005  0.271435E-005  0.359261E-004  0.561559E-002  0.355382       0.273650     
  0.590214       0.986142       0.402553       0.980856       0.137351       0.613574E-001  0.463320       0.956885       0.463157       0.187852     
  0.863590E-001  0.735592E-004  0.966682E-005  0.946243       0.989395       0.661641E-006  0.275408E-006  0.191960E-005  0.247839E-004  0.772661E-001
  0.553037E-001  0.261889       0.938566       0.268575       0.912826       0.170724E-003  0.418825E-007  0.932846E-002  0.726501       0.237869     
  0.418464E-001  0.826924E-002  0.585005E-005  0.267050E-005  0.882090       0.966070     
 
  0.107167E-005  0.223499E-005  0.117920E-004  0.264795E-002  0.302687       0.235184       0.499926       0.970642       0.482054       0.962211     
  0.110997E-001  0.152572E-002  0.163344       0.893401       0.461389       0.196520       0.852727E-001  0.850407E-004  0.569304E-005  0.943512     
  0.981110       0.713415E-006  0.281408E-005  0.724391E-005  0.799336E-003  0.231633       0.178136       0.442776       0.968570       0.352219     
  0.957749       0.640796E-002  0.578028E-003  0.126403       0.878099       0.409144       0.155600       0.576175E-001  0.568949E-004  0.596928E-005
  0.933716       0.979703       0.216223E-005  0.403151E-005  0.128440E-004  0.199872E-002  0.273083       0.210253       0.517727       0.979456     
  0.322806       0.972998       0.669991E-001  0.218167E-001  0.352353       0.938945       0.412921       0.147287       0.605558E-001  0.474155E-004
  0.497975E-005  0.934173       0.984610       0.480216E-006  0.149790E-005  0.434809E-005  0.107245E-003  0.138289       0.102339       0.332532     
  0.943484       0.280870       0.927152       0.487470E-003  0.688859E-006  0.205854E-001  0.769904       0.329114       0.102789       0.287726E-001
  0.309241E-004  0.567521E-005  0.910454       0.970632       0.329752E-005  0.271291E-005  0.359068E-004  0.407788E-002  0.334206       0.255517     
  0.572292       0.984590       0.400297       0.978824       0.105472       0.411524E-001  0.415430       0.950319       0.448147       0.175376     
  0.772342E-001  0.735262E-004  0.960330E-005  0.943050       0.988330       0.642665E-006  0.196482E-006  0.164755E-005  0.204441E-004  0.652158E-001
  0.464538E-001  0.237362       0.928872       0.262982       0.900668       0.829472E-004  0.362895E-008  0.472747E-002  0.689134       0.223328     
  0.365231E-001  0.648965E-002  0.409610E-005  0.253874E-005  0.875283       0.962248     
 
  0.105794E-005  0.223258E-005  0.117792E-004  0.164422E-002  0.275655       0.212291       0.470533       0.965314       0.475062       0.955833     
  0.550130E-002  0.459147E-003  0.116269       0.872032       0.442398       0.181459       0.743754E-001  0.760227E-004  0.568765E-005  0.939301     
  0.978464       0.702974E-006  0.281090E-005  0.723566E-005  0.478717E-003  0.208309       0.158789       0.414120       0.962626       0.346182     
  0.950535       0.301196E-002  0.146495E-003  0.857882E-001  0.853884       0.390713       0.142099       0.493065E-001  0.547001E-004  0.595349E-005
  0.928964       0.976830       0.214941E-005  0.402771E-005  0.128317E-004  0.134367E-002  0.251147       0.191732       0.495212       0.976610     
  0.319763       0.969468       0.430728E-001  0.110037E-001  0.292287       0.927402       0.396092       0.135025       0.525074E-001  0.460568E-004
  0.493322E-005  0.929869       0.982771       0.466695E-006  0.126578E-005  0.424219E-005  0.720042E-004  0.121078       0.889185E-001  0.305609     
  0.933843       0.275205       0.916164       0.227199E-003  0.922308E-007  0.114289E-001  0.735517       0.312239       0.924188E-001  0.239239E-001
  0.264494E-004  0.552825E-005  0.904728       0.966945       0.328543E-005  0.271127E-005  0.358850E-004  0.289610E-002  0.312704       0.237351     
  0.553601       0.982832       0.397811       0.976545       0.788584E-001  0.262832E-001  0.367788       0.942931       0.432698       0.162968     
  0.685054E-001  0.734891E-004  0.951706E-005  0.939591       0.987149       0.620778E-006  0.136692E-006  0.139192E-005  0.178668E-004  0.542959E-001
  0.385433E-001  0.213116       0.917545       0.256962       0.886627       0.486427E-004  0.218643E-009  0.218357E-002  0.647876       0.209052     
  0.316851E-001  0.502605E-002  0.283351E-005  0.239694E-005  0.868062       0.957983     
 
  0.104223E-005  0.222989E-005  0.117649E-004  0.995565E-003  0.249347       0.190346       0.440713       0.959203       0.467631       0.948555     
  0.257970E-002  0.118545E-003  0.794048E-001  0.848029       0.423490       0.167019       0.644112E-001  0.743950E-004  0.568162E-005  0.934811     
  0.975532       0.690053E-006  0.273577E-005  0.722645E-005  0.286240E-003  0.185850       0.140455       0.384662       0.955391       0.339661     
  0.941926       0.135986E-002  0.293312E-004  0.543025E-001  0.825460       0.372484       0.129334       0.418942E-001  0.512395E-004  0.591576E-005
  0.923901       0.973565       0.213434E-005  0.402349E-005  0.128182E-004  0.902419E-003  0.229969       0.174121       0.472375       0.973340     
  0.316528       0.965464       0.265733E-001  0.505805E-002  0.236378       0.914213       0.379541       0.123505       0.452946E-001  0.453983E-004
  0.487562E-005  0.925356       0.980742       0.450883E-006  0.102246E-005  0.423246E-005  0.498944E-004  0.104639       0.762905E-001  0.278222     
  0.922484       0.269057       0.903358       0.104013E-003  0.971174E-008  0.577623E-002  0.696933       0.295244       0.825475E-001  0.196342E-001
  0.208839E-004  0.535498E-005  0.898541       0.962788       0.327239E-005  0.270948E-005  0.358612E-004  0.206064E-002  0.292345       0.220373     
  0.535266       0.980932       0.395228       0.974120       0.585586E-001  0.164467E-001  0.324046       0.935040       0.417847       0.151460     
  0.607316E-001  0.734483E-004  0.941186E-005  0.936066       0.985895       0.598476E-006  0.961957E-007  0.118056E-005  0.165515E-004  0.454144E-001
  0.321843E-001  0.191713       0.905714       0.251126       0.872204       0.283511E-004  0.125950E-010  0.101646E-002  0.607679       0.196356     
  0.277047E-001  0.393915E-002  0.199419E-005  0.226070E-005  0.861063       0.953614     
 
  0.102365E-005  0.222682E-005  0.117488E-004  0.591071E-003  0.223800       0.169367       0.410172       0.951989       0.459571       0.940054     
  0.117415E-002  0.258212E-004  0.510928E-001  0.820528       0.404664       0.153203       0.553689E-001  0.649860E-004  0.567481E-005  0.930000     
  0.972227       0.674227E-006  0.250799E-005  0.719281E-005  0.174017E-003  0.164364       0.123194       0.354617       0.946617       0.332599     
  0.931691       0.598490E-003  0.447648E-005  0.317854E-001  0.792543       0.354457       0.117306       0.353340E-001  0.479469E-004  0.585185E-005
  0.918495       0.969851       0.211689E-005  0.397766E-005  0.128031E-004  0.608706E-003  0.209687       0.157500       0.449381       0.969606     
  0.313075       0.960960       0.158775E-001  0.212337E-002  0.186459       0.899389       0.363297       0.112713       0.388762E-001  0.451235E-004
  0.480478E-005  0.920617       0.978503       0.432463E-006  0.789436E-006  0.394647E-005  0.357623E-004  0.892342E-001  0.646391E-001  0.250733     
  0.909080       0.262387       0.888438       0.562264E-004  0.735045E-009  0.266284E-002  0.654042       0.278347       0.733191E-001  0.159272E-001
  0.164871E-004  0.515692E-005  0.891897       0.958103       0.325904E-005  0.270750E-005  0.358347E-004  0.149112E-002  0.273776       0.205070     
  0.518005       0.978938       0.392612       0.971649       0.437015E-001  0.102863E-001  0.285507       0.927115       0.404051       0.141146     
  0.540430E-001  0.734032E-004  0.929329E-005  0.932575       0.984586       0.575777E-006  0.670841E-007  0.100119E-005  0.158199E-004  0.380150E-001
  0.269326E-001  0.172401       0.893331       0.245367       0.857272       0.199049E-004  0.118698E-011  0.457610E-003  0.568266       0.184734     
  0.243195E-001  0.310403E-002  0.139961E-005  0.212832E-005  0.854117       0.949082     
 
  0.998944E-006  0.221815E-005  0.117304E-004  0.346980E-003  0.198661       0.149078       0.377719       0.942641       0.450315       0.929322     
  0.501073E-003  0.386283E-005  0.294721E-001  0.786626       0.385764       0.139930       0.471902E-001  0.587873E-004  0.566703E-005  0.924763     
  0.968322       0.655197E-006  0.217799E-005  0.716356E-005  0.109182E-003  0.143982       0.107080       0.324348       0.936106       0.325004     
  0.919654       0.236138E-003  0.534508E-006  0.170607E-001  0.755178       0.336645       0.106015       0.295757E-001  0.443623E-004  0.576145E-005
  0.912725       0.965652       0.209704E-005  0.376085E-005  0.127859E-004  0.413988E-003  0.190430       0.141934       0.426418       0.965379     
  0.309377       0.955940       0.923906E-002  0.817002E-003  0.143648       0.882987       0.347392       0.102629       0.332047E-001  0.440295E-004
  0.471871E-005  0.915635       0.976030       0.412923E-006  0.585008E-006  0.358285E-005  0.268841E-004  0.758758E-001  0.546826E-001  0.225421     
  0.894486       0.255632       0.872457       0.286024E-004  0.393356E-010  0.115127E-002  0.610746       0.262643       0.652609E-001  0.129478E-001
  0.127174E-004  0.494920E-005  0.885161       0.953112       0.324501E-005  0.261530E-005  0.358053E-004  0.108746E-002  0.256225       0.190771     
  0.501204       0.976797       0.389880       0.969060       0.325203E-001  0.634411E-002  0.250631       0.918929       0.390748       0.131548     
  0.480699E-001  0.721676E-004  0.915952E-005  0.929004       0.983186       0.552880E-006  0.466028E-007  0.848244E-006  0.153914E-004  0.318156E-001
  0.225630E-001  0.154963       0.880462       0.239669       0.841910       0.153307E-004  0.103020E-012  0.201772E-003  0.529921       0.173989     
  0.214066E-001  0.245461E-002  0.990387E-006  0.199991E-005  0.847179       0.944379     
 
  0.965231E-006  0.207268E-005  0.117097E-004  0.205259E-003  0.173970       0.129516       0.343159       0.930211       0.439544       0.915505     
  0.195812E-003  0.345553E-006  0.146230E-001  0.744608       0.366816       0.127252       0.398849E-001  0.542575E-004  0.564755E-005  0.919061     
  0.963671       0.632467E-006  0.181620E-005  0.715063E-005  0.710391E-004  0.124789       0.921442E-001  0.293985       0.923553       0.316827     
  0.905525       0.838330E-004  0.507990E-007  0.828082E-002  0.713151       0.319055       0.954536E-001  0.245630E-001  0.392144E-004  0.564460E-005
  0.906562       0.960908       0.207442E-005  0.343771E-005  0.127670E-004  0.283230E-003  0.172021       0.127254       0.403371       0.960622     
  0.305418       0.950343       0.523485E-002  0.283490E-003  0.107606       0.864825       0.331658       0.931106E-001  0.281608E-001  0.432930E-004
  0.461563E-005  0.910365       0.973317       0.392191E-006  0.429376E-006  0.318673E-005  0.208559E-004  0.641670E-001  0.460620E-001  0.201708     
  0.878541       0.248700       0.855185       0.208024E-004  0.175023E-011  0.472963E-003  0.566697       0.247793       0.580815E-001  0.105122E-001
  0.969248E-005  0.473225E-005  0.878238       0.947776       0.323041E-005  0.250675E-005  0.357733E-004  0.802220E-003  0.239736       0.177485     
  0.484957       0.974528       0.387057       0.966375       0.242021E-001  0.387911E-002  0.219519       0.910557       0.377983       0.122662     
  0.427656E-001  0.691528E-004  0.901294E-005  0.925377       0.981707       0.529248E-006  0.319820E-007  0.714472E-006  0.151148E-004  0.264656E-001
  0.188125E-001  0.138768       0.866807       0.233873       0.825725       0.125455E-004  0.627385E-014  0.852598E-004  0.491758       0.163711     
  0.188116E-001  0.193244E-002  0.701960E-006  0.187218E-005  0.840056       0.939406     
 
  0.922111E-006  0.180727E-005  0.116864E-004  0.124246E-003  0.150159       0.110988       0.307525       0.914368       0.427302       0.898375     
  0.489589E-004  0.213054E-007  0.620834E-002  0.695294       0.347905       0.115248       0.334440E-001  0.531028E-004  0.560122E-005  0.912863     
  0.958227       0.605134E-006  0.144516E-005  0.699221E-005  0.477755E-004  0.106808       0.783667E-001  0.263452       0.908382       0.307916     
  0.888772       0.304306E-004  0.345701E-008  0.358454E-002  0.665832       0.301675       0.856037E-001  0.202351E-001  0.350237E-004  0.550133E-005
  0.899944       0.955495       0.204811E-005  0.303670E-005  0.127458E-004  0.193156E-003  0.154016       0.113096       0.379660       0.955164     
  0.301104       0.943955       0.283909E-002  0.838223E-004  0.774176E-001  0.844239       0.315677       0.839077E-001  0.235849E-001  0.388515E-004
  0.449143E-005  0.904653       0.970292       0.370346E-006  0.312492E-006  0.279006E-005  0.165559E-004  0.538659E-001  0.385593E-001  0.179468     
  0.861167       0.241557       0.836557       0.154545E-004  0.622602E-013  0.187326E-003  0.522133       0.233572       0.516097E-001  0.850211E-002
  0.729092E-005  0.450636E-005  0.871041       0.942032       0.321527E-005  0.240254E-005  0.357379E-004  0.600624E-003  0.224340       0.165210     
  0.469309       0.972121       0.384165       0.963595       0.180673E-001  0.236271E-002  0.192099       0.902042       0.365798       0.114476     
  0.380822E-001  0.643902E-004  0.885612E-005  0.921703       0.980140       0.500742E-006  0.203131E-007  0.582380E-006  0.148287E-004  0.211846E-001
  0.151332E-001  0.121450       0.850088       0.227146       0.805822       0.124499E-004  0.214160E-015  0.289833E-004  0.447616       0.152370     
  0.161607E-001  0.145557E-002  0.469643E-006  0.172530E-005  0.831759       0.933552     
 
  0.867222E-006  0.151571E-005  0.116604E-004  0.768116E-004  0.127276       0.934884E-001  0.270818       0.894110       0.413317       0.877103     
  0.990175E-005  0.113097E-008  0.216611E-002  0.638105       0.328945       0.103856       0.277931E-001  0.495768E-004  0.552374E-005  0.906080     
  0.951840       0.572687E-006  0.108759E-005  0.653013E-005  0.331162E-004  0.901193E-001  0.657728E-001  0.233117       0.890135       0.298177     
  0.869024       0.100720E-004  0.144810E-009  0.135738E-002  0.613491       0.284505       0.764508E-001  0.165309E-001  0.313508E-004  0.533235E-005
  0.892819       0.949320       0.201904E-005  0.259101E-005  0.125959E-004  0.134372E-003  0.137430       0.100228       0.356563       0.949136     
  0.296585       0.936990       0.154546E-002  0.223510E-004  0.542106E-001  0.822135       0.300315       0.755126E-001  0.196839E-001  0.331110E-004
  0.435256E-005  0.898728       0.967030       0.347777E-006  0.222363E-006  0.241104E-005  0.134025E-004  0.449126E-001  0.320986E-001  0.158832     
  0.842502       0.234240       0.816708       0.131689E-004  0.557680E-014  0.690541E-004  0.477799       0.219999       0.458021E-001  0.685447E-002
  0.539550E-005  0.427492E-005  0.863578       0.935880       0.319769E-005  0.222026E-005  0.356941E-004  0.440125E-003  0.207868       0.152229     
  0.452011       0.969403       0.380954       0.960388       0.129709E-001  0.132658E-002  0.164580       0.892115       0.352478       0.105839     
  0.333561E-001  0.570234E-004  0.866372E-005  0.917551       0.978397       0.473552E-006  0.131234E-007  0.479036E-006  0.143325E-004  0.171203E-001
  0.123179E-001  0.106930       0.833425       0.220769       0.786261       0.124172E-004  0.307948E-016  0.101414E-004  0.407760       0.142483     
  0.140364E-001  0.111697E-002  0.322924E-006  0.159258E-005  0.823805       0.927662     
 
  0.796485E-006  0.115376E-005  0.111948E-004  0.481815E-004  0.105322       0.769808E-001  0.232813       0.867549       0.397040       0.850206     
  0.185430E-005  0.257103E-010  0.614996E-003  0.571860       0.309861       0.930531E-001  0.228832E-001  0.494080E-004  0.540970E-005  0.898531     
  0.944195       0.535171E-006  0.781538E-006  0.582291E-005  0.236341E-004  0.748485E-001  0.544090E-001  0.203481       0.868535       0.287613     
  0.846058       0.308651E-005  0.404282E-011  0.438288E-003  0.557005       0.267566       0.679768E-001  0.133898E-001  0.256910E-004  0.513903E-005
  0.885160       0.942339       0.198805E-005  0.217514E-005  0.121984E-004  0.962916E-004  0.122590       0.888636E-001  0.334764       0.942610     
  0.291925       0.929612       0.834567E-003  0.562850E-005  0.374922E-001  0.799374       0.285907       0.680522E-001  0.164505E-001  0.274345E-004
  0.420497E-005  0.892677       0.963527       0.324886E-006  0.154679E-006  0.206065E-005  0.110282E-004  0.372224E-001  0.265922E-001  0.139915     
  0.822729       0.226812       0.795828       0.131323E-004  0.803603E-015  0.238079E-004  0.434436       0.207093       0.406166E-001  0.551294E-002
  0.395112E-005  0.404136E-005  0.855875       0.929347       0.317893E-005  0.191587E-005  0.353313E-004  0.328855E-003  0.191849       0.139755     
  0.434713       0.966476       0.377647       0.956987       0.919031E-002  0.719264E-003  0.139757       0.881736       0.339146       0.975191E-001
  0.290277E-001  0.490878E-004  0.843967E-005  0.913150       0.976518       0.451374E-006  0.917059E-008  0.407956E-006  0.137126E-004  0.143663E-001
  0.104094E-001  0.961996E-001  0.818937       0.215364       0.769676       0.123845E-004  0.195635E-017  0.421025E-005  0.376438       0.134908     
  0.125250E-001  0.901562E-003  0.238541E-006  0.148950E-005  0.816966       0.922261     
 
  0.710149E-006  0.805202E-006  0.986699E-005  0.307101E-004  0.847080E-001  0.617199E-001  0.194909       0.833779       0.378426       0.817179     
  0.868591E-007  0.484105E-012  0.128772E-003  0.498981       0.290655       0.828529E-001  0.186587E-001  0.450276E-004  0.525836E-005  0.890116     
  0.935169       0.492775E-006  0.547181E-006  0.500807E-005  0.173137E-004  0.610899E-001  0.442934E-001  0.174859       0.843287       0.276228     
  0.819609       0.120076E-005  0.881608E-013  0.119900E-003  0.497185       0.250893       0.601615E-001  0.107514E-001  0.203852E-004  0.492294E-005
  0.876932       0.934495       0.195449E-005  0.178296E-005  0.116219E-004  0.700977E-004  0.108908       0.785178E-001  0.313564       0.935466     
  0.287028       0.921645       0.454552E-003  0.132345E-005  0.253140E-001  0.775398       0.271951       0.612048E-001  0.136858E-001  0.221646E-004
  0.404653E-005  0.886351       0.959729       0.300740E-006  0.104583E-006  0.172883E-005  0.911124E-005  0.303509E-001  0.217054E-001  0.121883     
  0.800969       0.218983       0.772935       0.130920E-004  0.258893E-016  0.752848E-005  0.390370       0.194220       0.357704E-001  0.437319E-002
  0.285207E-005  0.379592E-005  0.847627       0.922200       0.316230E-005  0.178077E-005  0.347369E-004  0.264910E-003  0.179267       0.130038     
  0.420619       0.963618       0.374669       0.953895       0.691594E-002  0.429428E-003  0.121895       0.872842       0.328288       0.909833E-001
  0.258046E-001  0.429077E-004  0.822958E-005  0.909190       0.974647       0.425567E-006  0.596648E-008  0.336577E-006  0.128063E-004  0.116384E-001
  0.851465E-002  0.847031E-001  0.801775       0.209199       0.749890       0.123492E-004  0.227367E-019  0.143930E-005  0.341098       0.126470     
  0.109468E-001  0.699315E-003  0.166547E-006  0.137379E-005  0.809072       0.916028     
 
  0.611029E-006  0.536882E-006  0.816146E-005  0.198385E-004  0.659033E-001  0.479688E-001  0.158140       0.792258       0.357502       0.777560     
  0.474022E-008  0.965759E-013  0.202580E-004  0.421915       0.271359       0.732682E-001  0.150595E-001  0.382879E-004  0.507150E-005  0.880731     
  0.924615       0.446199E-006  0.370466E-006  0.417743E-005  0.129660E-004  0.489319E-001  0.354450E-001  0.147840       0.814246       0.264086     
  0.789669       0.501492E-006  0.368281E-014  0.273703E-004  0.435768       0.234529       0.529901E-001  0.855705E-002  0.159646E-004  0.468580E-005
  0.868085       0.925727       0.191839E-005  0.143513E-005  0.109203E-004  0.519101E-004  0.963644E-001  0.691476E-001  0.293025       0.927691     
  0.281932       0.913077       0.248079E-003  0.286457E-006  0.166691E-001  0.750337       0.258457       0.549423E-001  0.113365E-001  0.175983E-004
  0.387911E-005  0.879746       0.955622       0.273730E-006  0.676064E-007  0.140827E-005  0.748077E-005  0.239807E-001  0.172060E-001  0.103896     
  0.775535       0.210301       0.746195       0.130477E-004  0.111931E-017  0.183970E-005  0.343294       0.180753       0.310544E-001  0.337385E-002
  0.198398E-005  0.352586E-005  0.838405       0.914052       0.314607E-005  0.165218E-005  0.340370E-004  0.220200E-003  0.168170       0.121528     
  0.407825       0.960679       0.371751       0.950855       0.532882E-002  0.265931E-003  0.107389       0.864487       0.318396       0.852220E-001
  0.230951E-001  0.376732E-004  0.802147E-005  0.905311       0.972701       0.395831E-006  0.360034E-008  0.269436E-006  0.113971E-004  0.908017E-002
  0.673691E-002  0.728950E-001  0.781476       0.202360       0.726354       0.123109E-004  0.187993E-021  0.390001E-006  0.302295       0.117420     
  0.938192E-002  0.522146E-003  0.110128E-006  0.124764E-005  0.800138       0.908890     
 
  0.508314E-006  0.342632E-006  0.642214E-005  0.130215E-004  0.496400E-001  0.361771E-001  0.124747       0.744779       0.335123       0.732767     
  0.340726E-009  0.372754E-013  0.245675E-005  0.346278       0.252152       0.643699E-001  0.120253E-001  0.324072E-004  0.485463E-005  0.870439     
  0.912714       0.396494E-006  0.238498E-006  0.337560E-005  0.986001E-005  0.384075E-001  0.278456E-001  0.122808       0.781358       0.251231     
  0.756229       0.284696E-006  0.177825E-014  0.497664E-005  0.374380       0.218519       0.464407E-001  0.675031E-002  0.121392E-004  0.443024E-005
  0.858596       0.915996       0.187988E-005  0.113954E-005  0.101481E-004  0.392337E-004  0.849321E-001  0.607063E-001  0.273252       0.919300     
  0.276673       0.903933       0.136425E-003  0.560467E-007  0.107231E-001  0.724363       0.245435       0.492363E-001  0.935239E-002  0.137998E-004
  0.370455E-005  0.872876       0.951213       0.247839E-006  0.428302E-007  0.114345E-005  0.625882E-005  0.189971E-001  0.137070E-001  0.886530E-001
  0.749524       0.201843       0.719240       0.129992E-004  0.551052E-018  0.453455E-006  0.300843       0.168727       0.271561E-001  0.263548E-002
  0.140356E-005  0.327473E-005  0.829276       0.905651       0.312719E-005  0.146625E-005  0.330423E-004  0.181019E-003  0.155792       0.112112     
  0.393292       0.957381       0.368493       0.947376       0.394061E-002  0.151271E-003  0.925653E-001  0.854817       0.307020       0.787888E-001
  0.202134E-001  0.321015E-004  0.776069E-005  0.900791       0.970547       0.376161E-006  0.256576E-008  0.232298E-006  0.103828E-004  0.767907E-002
  0.575779E-002  0.658235E-001  0.766711       0.197398       0.709895       0.673733E-005  0.187438E-021  0.163889E-006  0.277901       0.111703     
  0.846899E-002  0.430337E-003  0.837545E-007  0.116788E-005  0.793462       0.903076     
 
  0.410863E-006  0.203249E-006  0.482992E-005  0.871162E-005  0.363030E-001  0.265502E-001  0.960163E-001  0.693639       0.312003       0.684415     
  0.369381E-010  0.360171E-013  0.187785E-006  0.276435       0.233198       0.561923E-001  0.949553E-002  0.266418E-004  0.461303E-005  0.859270     
  0.899574       0.345180E-006  0.148614E-006  0.264583E-005  0.756106E-005  0.295032E-001  0.214519E-001  0.100189       0.744759       0.237720     
  0.719484       0.199545E-006  0.333564E-016  0.831166E-006  0.314862       0.202899       0.404933E-001  0.527714E-002  0.891539E-005  0.415977E-005
  0.848403       0.905224       0.183891E-005  0.892251E-006  0.933812E-005  0.303830E-004  0.745678E-001  0.531341E-001  0.254261       0.910190     
  0.271211       0.894165       0.749502E-004  0.995106E-008  0.673395E-002  0.697536       0.232876       0.440511E-001  0.768586E-002  0.107163E-004
  0.352452E-005  0.865682       0.946419       0.224038E-006  0.279017E-007  0.933081E-006  0.530953E-005  0.151905E-001  0.110360E-001  0.759807E-001
  0.723786       0.193746       0.692971       0.129457E-004  0.302386E-020  0.115327E-006  0.263520       0.158184       0.239739E-001  0.209526E-002
  0.101729E-005  0.304906E-005  0.820349       0.897106       0.310707E-005  0.127360E-005  0.317854E-004  0.151600E-003  0.143531       0.102876     
  0.378563       0.953823       0.365138       0.943682       0.290205E-002  0.838797E-004  0.793080E-001  0.844702       0.295329       0.724052E-001
  0.175101E-001  0.269104E-004  0.746258E-005  0.895895       0.968213       0.350761E-006  0.161467E-008  0.189957E-006  0.905940E-005  0.610729E-002
  0.465063E-002  0.572926E-001  0.747592       0.191227       0.688120       0.200755E-005  0.186838E-021  0.503024E-007  0.247417       0.104442     
  0.737468E-002  0.331088E-003  0.577545E-007  0.106712E-005  0.785026       0.895926     
 
  0.322576E-006  0.115042E-006  0.348078E-005  0.592145E-005  0.257611E-001  0.189523E-001  0.721048E-001  0.639989       0.288507       0.633354     
  0.827619E-011  0.190064E-014  0.168844E-007  0.214348       0.214617       0.487357E-001  0.741194E-002  0.203236E-004  0.435020E-005  0.847285     
  0.885281       0.293122E-006  0.897126E-007  0.202156E-005  0.579361E-005  0.220609E-001  0.161274E-001  0.799971E-001  0.704210       0.223523     
  0.679171       0.198534E-006  0.332066E-016  0.905849E-007  0.258259       0.187550       0.350668E-001  0.407624E-002  0.634656E-005  0.387557E-005
  0.837420       0.893342       0.179559E-005  0.687479E-006  0.850997E-005  0.241918E-004  0.652266E-001  0.463750E-001  0.236059       0.900392     
  0.265582       0.883789       0.403439E-004  0.163070E-008  0.411639E-002  0.669934       0.220800       0.393544E-001  0.629438E-002  0.825614E-005
  0.334127E-005  0.858209       0.941273       0.201290E-006  0.181578E-007  0.757847E-006  0.451192E-005  0.121022E-001  0.886474E-002  0.648725E-001
  0.697408       0.185686       0.666293       0.128875E-004  0.185931E-021  0.278481E-007  0.229365       0.148332       0.211909E-001  0.166982E-002
  0.739520E-006  0.283503E-005  0.811252       0.888181       0.309077E-005  0.114331E-005  0.307951E-004  0.135017E-003  0.135157       0.966089E-001
  0.368069       0.950496       0.362300       0.940575       0.233755E-002  0.548597E-004  0.709736E-001  0.837099       0.287007       0.680504E-001
  0.157632E-001  0.236183E-004  0.723612E-005  0.891865       0.965944       0.325148E-006  0.996685E-009  0.154605E-006  0.765619E-005  0.480477E-002
  0.372825E-002  0.495670E-001  0.727504       0.184972       0.665199       0.567422E-006  0.186200E-021  0.156515E-007  0.218134       0.975135E-001
  0.640649E-002  0.253516E-003  0.395212E-007  0.970047E-006  0.776352       0.888404     
 
  0.245321E-006  0.629535E-007  0.243287E-005  0.405963E-005  0.176938E-001  0.131316E-001  0.527794E-001  0.584474       0.264761       0.580169     
  0.465482E-011  0.171808E-014  0.698171E-009  0.161105       0.196472       0.419767E-001  0.571634E-002  0.147168E-004  0.406931E-005  0.834386     
  0.869753       0.240582E-006  0.493619E-007  0.148232E-005  0.438566E-005  0.158745E-001  0.117096E-001  0.619885E-001  0.658636       0.208374     
  0.634345       0.197409E-006  0.330396E-016  0.790273E-008  0.204951       0.172187       0.300491E-001  0.309129E-002  0.437215E-005  0.357530E-005
  0.825349       0.879979       0.174482E-005  0.509162E-006  0.760242E-005  0.195047E-004  0.559954E-001  0.397614E-001  0.216860       0.889023     
  0.259355       0.871718       0.202689E-004  0.194244E-009  0.230974E-002  0.638527       0.208049       0.346856E-001  0.502636E-002  0.613538E-005
  0.313698E-005  0.849857       0.935469       0.176026E-006  0.108768E-007  0.590178E-006  0.372895E-005  0.921137E-002  0.682599E-002  0.536082E-001
  0.666184       0.176574       0.634701       0.120705E-004  0.185112E-021  0.482007E-008  0.193207       0.137592       0.183552E-001  0.128180E-002
  0.509575E-006  0.259837E-005  0.800817       0.877825       0.307248E-005  0.100706E-005  0.296482E-004  0.119103E-003  0.126143       0.898982E-001
  0.356488       0.946816       0.359214       0.937102       0.183017E-002  0.337753E-004  0.625444E-001  0.828559       0.277768       0.633649E-001
  0.139674E-001  0.203076E-004  0.697697E-005  0.887319       0.963443       0.308289E-006  0.717885E-009  0.134385E-006  0.678781E-005  0.407756E-002
  0.320559E-002  0.448556E-001  0.712778       0.180232       0.649214       0.242284E-006  0.185515E-021  0.717553E-008  0.199884       0.929992E-001
  0.582098E-002  0.211609E-003  0.305770E-007  0.908111E-006  0.769598       0.882091     
 
  0.179091E-006  0.311987E-007  0.162718E-005  0.277566E-005  0.116758E-001  0.877441E-002  0.374157E-001  0.526909       0.240702       0.524824     
  0.264423E-011  0.170839E-014  0.249379E-010  0.116613       0.178766       0.358791E-001  0.435342E-002  0.103068E-004  0.377446E-005  0.820513     
  0.852865       0.191138E-006  0.262920E-007  0.104831E-005  0.328809E-005  0.110823E-001  0.827833E-002  0.467881E-001  0.609651       0.192829     
  0.586624       0.196179E-006  0.183648E-021  0.565063E-009  0.157483       0.157439       0.256167E-001  0.232629E-002  0.296606E-005  0.327500E-005
  0.812500       0.865382       0.168952E-005  0.369183E-006  0.672022E-005  0.163624E-004  0.476687E-001  0.338525E-001  0.198252       0.876552     
  0.252907       0.858578       0.100630E-004  0.199770E-010  0.122793E-002  0.605518       0.195635       0.304409E-001  0.397782E-002  0.449288E-005
  0.292757E-005  0.841065       0.929196       0.149961E-006  0.611111E-008  0.444434E-006  0.299197E-005  0.675750E-002  0.508684E-002  0.431276E-001
  0.631127       0.166856       0.599275       0.196402E-005  0.184229E-021  0.714010E-009  0.157867       0.126688       0.156959E-001  0.960942E-003
  0.339205E-006  0.235461E-005  0.789427       0.866292       0.305174E-005  0.859100E-006  0.282335E-004  0.104174E-003  0.116147       0.825199E-001
  0.343394       0.942779       0.355840       0.933179       0.137818E-002  0.190895E-004  0.539453E-001  0.818737       0.267158       0.581589E-001
  0.120750E-001  0.169012E-004  0.665952E-005  0.882055       0.960710       0.283594E-006  0.430331E-009  0.108412E-006  0.551798E-005  0.315685E-002
  0.253915E-002  0.384578E-001  0.691703       0.173879       0.625293       0.657862E-007  0.184794E-021  0.222753E-008  0.173971       0.865691E-001
  0.503089E-002  0.160567E-003  0.206238E-007  0.819681E-006  0.760481       0.873946     
 
  0.124030E-006  0.145925E-007  0.102745E-005  0.186576E-005  0.733356E-002  0.560606E-002  0.254352E-001  0.467182       0.216236       0.467301     
  0.113472E-011  0.182550E-021  0.746643E-012  0.804474E-001  0.161485       0.303947E-001  0.327153E-002  0.702543E-005  0.346946E-005  0.805481     
  0.834290       0.147552E-006  0.135598E-007  0.723136E-006  0.244798E-005  0.755553E-002  0.573479E-002  0.346273E-001  0.559158       0.177396     
  0.537877       0.194823E-006  0.182522E-021  0.318093E-010  0.118001       0.143588       0.217865E-001  0.174652E-002  0.199992E-005  0.298423E-005
  0.799008       0.849781       0.163645E-005  0.272752E-006  0.597506E-005  0.142455E-004  0.410157E-001  0.291622E-001  0.182227       0.863968     
  0.246717       0.845663       0.413851E-005  0.218402E-011  0.675869E-003  0.574944       0.184833       0.270014E-001  0.320642E-002  0.336591E-005
  0.273822E-005  0.832470       0.922692       0.130137E-006  0.376658E-008  0.349748E-006  0.246806E-005  0.519657E-002  0.396993E-002  0.358232E-001
  0.601094       0.158581       0.569461       0.400503E-006  0.183267E-021  0.165414E-009  0.132376       0.118260       0.137994E-001  0.759016E-003
  0.242996E-006  0.216523E-005  0.779205       0.855569       0.303541E-005  0.773991E-006  0.273022E-004  0.961102E-004  0.110101       0.780784E-001
  0.334974       0.938996       0.352905       0.929979       0.115473E-002  0.133462E-004  0.491545E-001  0.811972       0.260448       0.550308E-001
  0.109987E-001  0.150181E-004  0.645225E-005  0.877963       0.958041       0.269232E-006  0.317117E-009  0.953738E-007  0.483783E-005  0.270641E-002
  0.220770E-002  0.350269E-001  0.677714       0.169449       0.610420       0.311948E-007  0.184032E-021  0.112637E-008  0.159796       0.828680E-001
  0.461054E-002  0.136393E-003  0.163398E-007  0.769931E-006  0.753909       0.867516     
 
  0.809102E-007  0.629765E-008  0.611213E-006  0.122177E-005  0.435493E-002  0.340379E-002  0.165075E-001  0.406561       0.191783       0.408689     
  0.630024E-012  0.181279E-021  0.160710E-013  0.525988E-001  0.144686       0.254803E-001  0.242097E-002  0.466396E-005  0.315797E-005  0.789218     
  0.814015       0.110269E-006  0.666882E-008  0.483595E-006  0.177630E-005  0.499102E-002  0.386376E-002  0.249942E-001  0.507543       0.161998     
  0.488282       0.268709E-007  0.181270E-021  0.172278E-011  0.857614E-001  0.130332       0.184065E-001  0.129826E-002  0.132763E-005  0.269883E-005
  0.784613       0.832951       0.158223E-005  0.199914E-006  0.529692E-005  0.125614E-004  0.351869E-001  0.250722E-001  0.167228       0.850746     
  0.240420       0.832221       0.162817E-005  0.218085E-012  0.366951E-003  0.544559       0.174523       0.239269E-001  0.257830E-002  0.251057E-005
  0.255235E-005  0.823571       0.915772       0.113047E-006  0.235471E-008  0.277091E-006  0.203814E-005  0.402256E-002  0.311982E-002  0.298877E-001
  0.572393       0.150669       0.541240       0.837399E-007  0.182213E-021  0.431242E-010  0.111262       0.110629       0.121902E-001  0.605275E-003
  0.176421E-006  0.199426E-005  0.768952       0.844653       0.301451E-005  0.664800E-006  0.260007E-004  0.859601E-004  0.101990       0.721521E-001
  0.323566       0.934630       0.349466       0.926022       0.897570E-003  0.798736E-005  0.430491E-001  0.802894       0.251223       0.508308E-001
  0.961385E-002  0.126587E-004  0.616219E-005  0.872720       0.955020       0.247619E-006  0.193126E-009  0.777157E-007  0.385889E-005  0.210883E-002
  0.176351E-002  0.301738E-001  0.657368       0.163416       0.587674       0.980602E-008  0.183220E-021  0.380927E-009  0.139064       0.773637E-001
  0.401257E-002  0.105141E-003  0.112461E-007  0.696131E-006  0.744885       0.859155     
 
 )
